%OpenBCI Raw EEG Data
%
%Sample Rate = 200.0 Hz
%First Column = SampleIndex
%Last Column = Timestamp 
%Other Columns = EEG data in microvolts followed by Accel Data (in G) interleaved with Aux Data
11, 599.78, 578.24, 52.35, -816.85, 0.000, 0.000, 0.000, 22:06:54.515
12, -161.72, -259.48, -7.35, -858.80, 0.000, 0.000, 0.000, 22:06:54.515
13, -318.86, -397.83, -39.47, -898.27, 0.000, 0.000, 0.000, 22:06:54.529
14, 558.14, 557.80, 37.95, -834.74, 0.000, 0.000, 0.000, 22:06:54.529
15, 177.64, 70.70, 13.21, -836.65, 0.000, 0.000, 0.000, 22:06:54.530
16, -450.48, -546.50, -44.87, -903.95, 0.000, 0.000, 0.000, 22:06:54.530
17, 295.25, 273.54, -4.88, -867.01, 0.000, 0.000, 0.000, 22:06:54.544
18, 464.68, 399.76, 43.84, -809.23, 0.000, 0.000, 0.000, 22:06:54.544
19, -390.42, -501.49, -8.73, -863.48, 0.000, 0.000, 0.000, 22:06:54.559
20, -52.27, -99.86, -13.64, -874.18, 0.000, 0.000, 0.000, 22:06:54.559
21, 625.21, 591.42, 54.97, -815.50, 0.000, 0.000, 0.000, 22:06:54.560
22, -165.91, -275.11, -0.44, -853.85, 0.000, 0.000, 0.000, 22:06:54.560
23, -314.02, -401.41, -28.42, -891.88, 0.000, 0.000, 0.000, 22:06:54.575
24, 555.84, 532.81, 28.49, -833.92, 0.000, 0.000, 0.000, 22:06:54.575
25, 152.06, 66.46, -6.02, -852.95, 0.000, 0.000, 0.000, 22:06:54.590
26, -452.62, -547.47, -39.22, -895.62, 0.000, 0.000, 0.000, 22:06:54.590
27, 312.58, 289.20, 16.16, -851.08, 0.000, 0.000, 0.000, 22:06:54.590
28, 476.86, 417.54, 43.31, -819.88, 0.000, 0.000, 0.000, 22:06:54.590
29, -392.21, -506.08, -34.45, -879.90, 0.000, 0.000, 0.000, 22:06:54.605
30, -37.53, -85.07, -19.44, -887.58, 0.000, 0.000, 0.000, 22:06:54.605
31, 610.74, 587.20, 37.57, -827.56, 0.000, 0.000, 0.000, 22:06:54.619
32, -146.64, -271.69, -7.68, -857.28, 0.000, 0.000, 0.000, 22:06:54.619
33, -310.53, -386.55, -34.18, -882.40, 0.000, 0.000, 0.000, 22:06:54.620
34, 548.45, 540.76, 38.52, -846.89, 0.000, 0.000, 0.000, 22:06:54.620
35, 176.54, 77.88, 20.58, -844.39, 0.000, 0.000, 0.000, 22:06:54.634
36, -477.67, -562.26, -41.15, -901.04, 0.000, 0.000, 0.000, 22:06:54.634
37, 280.92, 270.48, 6.56, -876.74, 0.000, 0.000, 0.000, 22:06:54.650
38, 476.41, 408.25, 29.25, -832.21, 0.000, 0.000, 0.000, 22:06:54.650
39, -371.33, -483.76, -29.60, -879.53, 0.000, 0.000, 0.000, 22:06:54.651
40, -26.71, -71.91, -17.10, -879.20, 0.000, 0.000, 0.000, 22:06:54.651
41, 637.28, 599.22, 36.16, -826.79, 0.000, 0.000, 0.000, 22:06:54.672
42, -141.44, -252.26, -9.93, -862.90, 0.000, 0.000, 0.000, 22:06:54.672
43, -326.36, -395.55, -36.96, -898.38, 0.000, 0.000, 0.000, 22:06:54.680
44, 561.39, 544.47, 36.17, -835.95, 0.000, 0.000, 0.000, 22:06:54.680
45, 167.89, 80.58, 14.91, -846.52, 0.000, 0.000, 0.000, 22:06:54.680
46, -459.03, -541.68, -43.24, -899.08, 0.000, 0.000, 0.000, 22:06:54.680
47, 305.22, 278.99, 10.44, -861.09, 0.000, 0.000, 0.000, 22:06:54.695
48, 480.56, 404.40, 23.61, -829.52, 0.000, 0.000, 0.000, 22:06:54.695
49, -366.83, -484.75, -29.43, -864.23, 0.000, 0.000, 0.000, 22:06:54.711
50, -42.81, -84.87, -18.07, -881.57, 0.000, 0.000, 0.000, 22:06:54.711
51, 605.50, 574.21, 35.01, -825.56, 0.000, 0.000, 0.000, 22:06:54.712
52, -160.61, -272.25, -24.21, -871.60, 0.000, 0.000, 0.000, 22:06:54.712
53, -350.24, -428.54, -53.74, -896.54, 0.000, 0.000, 0.000, 22:06:54.724
54, 567.61, -426.05, 41.92, -824.41, 0.000, 0.000, 0.000, 22:06:54.724
55, 201.78, -890.84, 38.52, -818.25, 0.000, 0.000, 0.000, 22:06:54.741
56, -476.78, -1541.08, -18.99, -871.11, 0.000, 0.000, 0.000, 22:06:54.741
57, 305.47, -708.83, 22.28, -851.36, 0.000, 0.000, 0.000, 22:06:54.741
58, 485.39, -555.01, 59.70, -810.29, 0.000, 0.000, 0.000, 22:06:54.741
59, -380.33, -1484.52, -24.17, -853.95, 0.000, 0.000, 0.000, 22:06:54.755
60, -40.60, -1067.48, -14.05, -870.22, 0.000, 0.000, 0.000, 22:06:54.755
61, 632.97, -377.99, 54.09, -814.34, 0.000, 0.000, 0.000, 22:06:54.769
62, -142.36, -1234.56, 1.51, -846.74, 0.000, 0.000, 0.000, 22:06:54.769
63, -319.01, -1372.51, -38.06, -892.01, 0.000, 0.000, 0.000, 22:06:54.770
64, 541.95, -453.14, 32.53, -836.81, 0.000, 0.000, 0.000, 22:06:54.770
65, 170.05, -904.10, 15.86, -846.64, 0.000, 0.000, 0.000, 22:06:54.785
66, -465.95, -1539.17, -49.23, -890.52, 0.000, 0.000, 0.000, 22:06:54.785
67, 314.59, -686.71, 46.34, -817.16, 0.000, 0.000, 0.000, 22:06:54.800
68, 500.08, -532.46, 97.08, -750.91, 0.000, 0.000, 0.000, 22:06:54.800
69, -387.64, -1472.26, 46.03, -785.01, 0.000, 0.000, 0.000, 22:06:54.800
70, -54.55, -1071.74, 86.00, -774.00, 0.000, 0.000, 0.000, 22:06:54.800
71, 631.96, -377.94, 166.08, -680.00, 0.000, 0.000, 0.000, 22:06:54.815
72, -166.48, -1247.48, 129.57, -709.74, 0.000, 0.000, 0.000, 22:06:54.815
73, -324.80, -1384.89, 130.41, -737.10, 0.000, 0.000, 0.000, 22:06:54.832
74, 546.38, -433.29, 229.88, -641.18, 0.000, 0.000, 0.000, 22:06:54.833
75, 196.86, -881.77, 232.35, -614.41, 0.000, 0.000, 0.000, 22:06:54.833
76, -432.92, -1508.38, 179.99, -657.89, 0.000, 0.000, 0.000, 22:06:54.833
77, 310.57, -700.91, 224.93, -641.56, 0.000, 0.000, 0.000, 22:06:54.844
78, 490.30, -556.33, 262.50, -588.55, 0.000, 0.000, 0.000, 22:06:54.844
79, -370.09, -1466.84, 186.29, -659.67, 0.000, 0.000, 0.000, 22:06:54.859
80, -33.09, -1065.64, 161.53, -691.24, 0.000, 0.000, 0.000, 22:06:54.859
81, 633.36, -376.19, 200.89, -667.73, 0.000, 0.000, 0.000, 22:06:54.860
82, -129.43, -1219.48, 122.50, -722.54, 0.000, 0.000, 0.000, 22:06:54.860
83, -309.75, -1372.45, 66.93, -793.47, 0.000, 0.000, 0.000, 22:06:54.874
84, 565.69, -429.68, 115.03, -754.79, 0.000, 0.000, 0.000, 22:06:54.874
85, 191.54, -885.76, 62.91, -796.79, 0.000, 0.000, 0.000, 22:06:54.890
86, -471.86, -1536.90, -16.33, -888.18, 0.000, 0.000, 0.000, 22:06:54.890
87, 283.22, -712.40, 9.59, -874.63, 0.000, 0.000, 0.000, 22:06:54.891
88, 495.13, -544.16, 19.95, -855.54, 0.000, 0.000, 0.000, 22:06:54.891
89, -384.05, -1469.51, -68.94, -927.42, 0.000, 0.000, 0.000, 22:06:54.906
90, -44.43, -1059.34, -65.99, -937.88, 0.000, 0.000, 0.000, 22:06:54.906
91, 631.01, -384.09, -15.03, -886.67, 0.000, 0.000, 0.000, 22:06:54.920
92, -126.77, -1225.44, -48.44, -914.67, 0.000, 0.000, 0.000, 22:06:54.920
93, -334.37, -1399.94, -91.34, -956.39, 0.000, 0.000, 0.000, 22:06:54.920
94, 535.10, -460.13, -50.67, -908.18, 0.000, 0.000, 0.000, 22:06:54.920
95, 173.23, -903.70, -68.39, -918.90, 0.000, 0.000, 0.000, 22:06:54.934
96, -453.35, -1540.36, -113.99, -978.82, 0.000, 0.000, 0.000, 22:06:54.935
97, 281.69, -721.68, -71.61, -951.25, 0.000, 0.000, 0.000, 22:06:54.949
98, 459.76, -572.55, -51.14, -916.36, 0.000, 0.000, 0.000, 22:06:54.949
99, -409.79, -1489.69, -122.24, -969.15, 0.000, 0.000, 0.000, 22:06:54.957
100, -56.93, -1092.77, -102.69, -969.55, 0.000, 0.000, 0.000, 22:06:54.957
101, 646.84, -380.78, -24.13, -899.39, 0.000, 0.000, 0.000, 22:06:54.964
102, -141.90, -1230.95, -66.98, -929.43, 0.000, 0.000, 0.000, 22:06:54.965
103, -341.63, -1392.32, -103.12, -959.99, 0.000, 0.000, 0.000, 22:06:54.979
104, 542.72, -454.26, -42.03, -916.50, 0.000, 0.000, 0.000, 22:06:54.979
105, 175.03, -895.75, -35.12, -908.08, 0.000, 0.000, 0.000, 22:06:54.980
106, -466.57, -1542.75, -105.07, -964.78, 0.000, 0.000, 0.000, 22:06:54.980
107, 288.83, -716.19, -61.49, -930.86, 0.000, 0.000, 0.000, 22:06:55.010
108, 486.12, -548.49, -19.86, -884.43, 0.000, 0.000, 0.000, 22:06:55.010
109, -381.98, -1466.71, -98.62, -943.33, 0.000, 0.000, 0.000, 22:06:55.010
110, -49.37, -1074.90, -72.74, -932.76, 0.000, 0.000, 0.000, 22:06:55.010
111, 620.57, -379.24, -14.25, -886.94, 0.000, 0.000, 0.000, 22:06:55.011
112, -152.77, -1237.95, -70.00, -920.22, 0.000, 0.000, 0.000, 22:06:55.011
113, -346.26, -1404.76, -102.70, -956.64, 0.000, 0.000, 0.000, 22:06:55.025
114, 537.12, -455.01, -15.74, -886.49, 0.000, 0.000, 0.000, 22:06:55.025
115, 181.98, -894.72, -18.99, -871.25, 0.000, 0.000, 0.000, 22:06:55.040
116, -470.23, -1545.58, -74.54, -931.91, 0.000, 0.000, 0.000, 22:06:55.041
117, 285.26, -728.70, -31.41, -902.33, 0.000, 0.000, 0.000, 22:06:55.041
118, 494.68, -557.38, 11.07, -860.87, 0.000, 0.000, 0.000, 22:06:55.041
119, -383.22, -1481.15, -54.87, -915.78, 0.000, 0.000, 0.000, 22:06:55.055
120, -63.48, -1092.66, -56.66, -919.35, 0.000, 0.000, 0.000, 22:06:55.055
121, 628.91, -385.37, -3.67, -867.21, 0.000, 0.000, 0.000, 22:06:55.069
122, -144.28, -1234.54, -29.88, -896.09, 0.000, 0.000, 0.000, 22:06:55.070
123, -335.25, -1393.42, -60.60, -925.89, 0.000, 0.000, 0.000, 22:06:55.070
124, 556.16, -436.49, 10.88, -866.70, 0.000, 0.000, 0.000, 22:06:55.070
125, 213.82, -860.68, -11.90, -864.21, 0.000, 0.000, 0.000, 22:06:55.085
126, -440.81, -1518.82, -44.96, -921.40, 0.000, 0.000, 0.000, 22:06:55.085
127, 279.99, -713.53, -6.07, -879.20, 0.000, 0.000, 0.000, 22:06:55.099
128, 486.22, -558.15, 15.64, -839.36, 0.000, 0.000, 0.000, 22:06:55.099
129, -377.73, -1471.14, -45.08, -890.16, 0.000, 0.000, 0.000, 22:06:55.100
130, -38.44, -1061.44, -34.88, -890.04, 0.000, 0.000, 0.000, 22:06:55.100
131, 602.89, -400.93, 20.85, -847.64, 0.000, 0.000, 0.000, 22:06:55.115
132, -146.51, -1240.12, -36.62, -877.56, 0.000, 0.000, 0.000, 22:06:55.115
133, -369.02, -1420.71, -70.47, -914.64, 0.000, 0.000, 0.000, 22:06:55.129
134, 543.43, -447.65, 41.37, -836.60, 0.000, 0.000, 0.000, 22:06:55.129
135, 213.76, -874.73, 25.75, -843.30, 0.000, 0.000, 0.000, 22:06:55.130
136, -464.05, -1543.52, -33.15, -900.83, 0.000, 0.000, 0.000, 22:06:55.130
137, 271.75, -725.16, -8.40, -877.09, 0.000, 0.000, 0.000, 22:06:55.145
138, 493.66, -549.53, 10.28, -846.09, 0.000, 0.000, 0.000, 22:06:55.145
139, -382.37, -1476.85, -40.74, -895.60, 0.000, 0.000, 0.000, 22:06:55.159
140, -58.74, -1092.36, -49.85, -911.70, 0.000, 0.000, 0.000, 22:06:55.159
141, 619.86, -384.14, 27.69, -843.22, 0.000, 0.000, 0.000, 22:06:55.160
142, -132.14, -1228.56, -5.30, -852.46, 0.000, 0.000, 0.000, 22:06:55.160
143, -346.36, -1404.76, -32.31, -885.41, 0.000, 0.000, 0.000, 22:06:55.174
144, 546.12, -445.14, 44.96, -829.46, 0.000, 0.000, 0.000, 22:06:55.174
145, 189.90, -888.28, 20.36, -832.66, 0.000, 0.000, 0.000, 22:06:55.190
146, -457.92, -1548.33, -48.50, -894.28, 0.000, 0.000, 0.000, 22:06:55.190
147, 281.67, -723.26, 12.64, -849.55, 0.000, 0.000, 0.000, 22:06:55.190
148, 505.23, -535.31, 58.40, -812.07, 0.000, 0.000, 0.000, 22:06:55.191
149, -365.66, -1463.59, -22.34, -874.42, 0.000, 0.000, 0.000, 22:06:55.205
150, -59.06, -1102.98, -14.36, -873.55, 0.000, 0.000, 0.000, 22:06:55.205
151, 638.52, -368.80, 60.04, -808.78, 0.000, 0.000, 0.000, 22:06:55.219
152, -126.72, -1221.37, 1.48, -847.46, 0.000, 0.000, 0.000, 22:06:55.219
153, -359.89, -1409.08, -37.73, -895.48, 0.000, 0.000, 0.000, 22:06:55.220
154, 551.19, -443.79, 23.93, -838.70, 0.000, 0.000, 0.000, 22:06:55.220
155, 199.25, -866.72, 13.55, -843.98, 0.000, 0.000, 0.000, 22:06:55.235
156, -459.06, -1527.86, -57.17, -898.69, 0.000, 0.000, 0.000, 22:06:55.235
157, 289.10, -705.34, 2.43, -857.10, 0.000, 0.000, 0.000, 22:06:55.249
158, 490.60, -547.35, 36.63, -822.30, 0.000, 0.000, 0.000, 22:06:55.249
159, -375.97, -1473.46, -46.17, -887.32, 0.000, 0.000, 0.000, 22:06:55.250
160, -67.43, -1100.13, -28.89, -893.82, 0.000, 0.000, 0.000, 22:06:55.250
161, 634.16, -374.00, 44.79, -825.84, 0.000, 0.000, 0.000, 22:06:55.265
162, -129.51, -1233.75, -7.89, -866.54, 0.000, 0.000, 0.000, 22:06:55.265
163, -358.29, -1401.02, -43.72, -910.16, 0.000, 0.000, 0.000, 22:06:55.280
164, 527.64, -464.71, 15.97, -849.31, 0.000, 0.000, 0.000, 22:06:55.280
165, 207.28, -869.73, 15.09, -844.70, 0.000, 0.000, 0.000, 22:06:55.280
166, -455.40, -1532.87, -57.54, -913.81, 0.000, 0.000, 0.000, 22:06:55.280
167, 296.52, -714.64, -5.47, -859.89, 0.000, 0.000, 0.000, 22:06:55.295
168, 492.43, -540.17, 13.59, -830.19, 0.000, 0.000, 0.000, 22:06:55.295
169, -374.08, -1467.10, -39.10, -875.67, 0.000, 0.000, 0.000, 22:06:55.309
170, -68.74, -1086.99, -21.60, -889.21, 0.000, 0.000, 0.000, 22:06:55.310
171, 621.07, -385.55, 45.81, -826.06, 0.000, 0.000, 0.000, 22:06:55.310
172, -118.17, -1216.18, 7.84, -846.19, 0.000, 0.000, 0.000, 22:06:55.310
173, -339.72, -1404.85, -35.44, -889.28, 0.000, 0.000, 0.000, 22:06:55.331
174, 532.54, -460.16, 37.31, -840.24, 0.000, 0.000, 0.000, 22:06:55.331
175, 191.57, -872.17, 8.97, -840.76, 0.000, 0.000, 0.000, 22:06:55.340
176, -463.99, -1545.54, -51.64, -897.56, 0.000, 0.000, 0.000, 22:06:55.340
177, 259.59, -740.81, -4.84, -867.87, 0.000, 0.000, 0.000, 22:06:55.340
178, 476.47, -562.33, 19.74, -832.38, 0.000, 0.000, 0.000, 22:06:55.340
179, -364.42, -1465.44, -29.49, -883.12, 0.000, 0.000, 0.000, 22:06:55.355
180, -59.56, -1094.13, -11.27, -867.89, 0.000, 0.000, 0.000, 22:06:55.355
181, 632.68, -376.42, 57.95, -809.44, 0.000, 0.000, 0.000, 22:06:55.369
182, -128.89, -1220.11, -3.94, -849.92, 0.000, 0.000, 0.000, 22:06:55.370
183, -354.30, -1410.64, -45.75, -894.73, 0.000, 0.000, 0.000, 22:06:55.370
184, 533.10, -447.16, 36.19, -836.26, 0.000, 0.000, 0.000, 22:06:55.370
185, 229.83, -851.10, 22.56, -825.23, 0.000, 0.000, 0.000, 22:06:55.385
186, -457.63, -1522.45, -38.93, -883.30, 0.000, 0.000, 0.000, 22:06:55.385
187, 281.49, -729.86, -7.71, -869.97, 0.000, 0.000, 0.000, 22:06:55.399
188, 511.30, -543.65, 18.02, -832.15, 0.000, 0.000, 0.000, 22:06:55.400
189, -361.04, -1463.20, -50.47, -901.65, 0.000, 0.000, 0.000, 22:06:55.400
190, -70.51, -1106.17, -39.61, -894.28, 0.000, 0.000, 0.000, 22:06:55.400
191, 631.38, -377.93, 27.73, -833.73, 0.000, 0.000, 0.000, 22:06:55.414
192, -133.30, -1227.40, -17.82, -877.09, 0.000, 0.000, 0.000, 22:06:55.415
193, -371.09, -1416.62, -66.58, -915.22, 0.000, 0.000, 0.000, 22:06:55.430
194, 524.08, -462.62, 4.32, -849.86, 0.000, 0.000, 0.000, 22:06:55.430
195, 204.91, -866.41, -5.92, -850.20, 0.000, 0.000, 0.000, 22:06:55.430
196, -458.52, -1528.25, -51.89, -904.79, 0.000, 0.000, 0.000, 22:06:55.430
197, 283.88, -724.82, 1.20, -869.54, 0.000, 0.000, 0.000, 22:06:55.445
198, 487.07, -547.42, 30.12, -830.54, 0.000, 0.000, 0.000, 22:06:55.445
199, -365.23, -1464.32, -24.12, -873.21, 0.000, 0.000, 0.000, 22:06:55.459
200, -80.77, -1096.08, -9.87, -866.27, 0.000, 0.000, 0.000, 22:06:55.460
0, 635.42, 592.01, 50.64, -809.89, 0.000, 0.000, 0.000, 22:06:55.460
1, -119.31, -238.76, 11.92, -846.97, 0.000, 0.000, 0.000, 22:06:55.475
2, -350.81, -432.28, -22.25, -868.87, 0.000, 0.000, 0.000, 22:06:55.475
3, 535.31, 520.42, 49.07, -811.90, 0.000, 0.000, 0.000, 22:06:55.475
4, 197.99, 119.43, 39.63, -822.42, 0.000, 0.000, 0.000, 22:06:55.475
5, -481.44, -565.48, -28.62, -885.66, 0.000, 0.000, 0.000, 22:06:55.490
6, 267.07, 246.26, 1.13, -852.45, 0.000, 0.000, 0.000, 22:06:55.490
7, 486.76, 428.61, 35.07, -821.86, 0.000, 0.000, 0.000, 22:06:55.505
8, -381.85, -491.47, -42.14, -880.64, 0.000, 0.000, 0.000, 22:06:55.505
9, -87.97, -134.01, -53.79, -890.96, 0.000, 0.000, 0.000, 22:06:55.505
10, 622.51, 600.72, 27.87, -825.49, 0.000, 0.000, 0.000, 22:06:55.506
11, -115.07, -241.27, -18.26, -855.51, 0.000, 0.000, 0.000, 22:06:55.519
12, -340.89, -418.49, -39.08, -889.04, 0.000, 0.000, 0.000, 22:06:55.520
13, 550.71, 527.86, 10.32, -844.91, 0.000, 0.000, 0.000, 22:06:55.534
14, 199.40, 110.81, 3.26, -836.47, 0.000, 0.000, 0.000, 22:06:55.534
15, -458.12, -557.37, -48.10, -893.06, 0.000, 0.000, 0.000, 22:06:55.535
16, 277.75, 258.04, -8.56, -862.04, 0.000, 0.000, 0.000, 22:06:55.535
17, 520.28, 453.05, 38.71, -822.16, 0.000, 0.000, 0.000, 22:06:55.551
18, -370.84, -469.58, -38.78, -885.61, 0.000, 0.000, 0.000, 22:06:55.551
19, -73.63, -122.87, -33.06, -891.33, 0.000, 0.000, 0.000, 22:06:55.564
20, 622.48, 606.52, 17.46, -842.28, 0.000, 0.000, 0.000, 22:06:55.564
21, -125.56, -237.17, -12.81, -869.41, 0.000, 0.000, 0.000, 22:06:55.565
22, -360.69, -433.24, -39.90, -898.62, 0.000, 0.000, 0.000, 22:06:55.565
23, 548.48, 510.57, 30.26, -836.74, 0.000, 0.000, 0.000, 22:06:55.580
24, 194.38, 107.89, 18.36, -832.84, 0.000, 0.000, 0.000, 22:06:55.580
25, -470.18, -574.85, -45.62, -896.23, 0.000, 0.000, 0.000, 22:06:55.594
26, 276.46, 250.06, 24.59, -853.65, 0.000, 0.000, 0.000, 22:06:55.594
27, 509.59, 456.63, 63.31, -797.81, 0.000, 0.000, 0.000, 22:06:55.595
28, -351.43, -462.85, 4.82, -845.61, 0.000, 0.000, 0.000, 22:06:55.595
29, -70.34, -109.48, 1.03, -860.39, 0.000, 0.000, 0.000, 22:06:55.625
30, 626.84, 605.33, 56.49, -812.20, 0.000, 0.000, 0.000, 22:06:55.625
31, -115.19, -223.06, 8.95, -851.09, 0.000, 0.000, 0.000, 22:06:55.625
32, -343.72, -416.92, -33.51, -884.98, 0.000, 0.000, 0.000, 22:06:55.625
33, 554.21, 537.40, 29.21, -831.00, 0.000, 0.000, 0.000, 22:06:55.626
34, 217.49, 124.99, 15.47, -841.04, 0.000, 0.000, 0.000, 22:06:55.626
35, -465.25, -565.90, -46.69, -900.83, 0.000, 0.000, 0.000, 22:06:55.640
36, 253.58, 241.05, 8.21, -869.33, 0.000, 0.000, 0.000, 22:06:55.640
37, 500.78, 450.38, 37.17, -822.63, 0.000, 0.000, 0.000, 22:06:55.655
38, -358.62, -485.07, -27.37, -872.46, 0.000, 0.000, 0.000, 22:06:55.655
39, -85.76, -128.66, -18.61, -881.19, 0.000, 0.000, 0.000, 22:06:55.655
40, 618.29, 585.10, 34.08, -827.01, 0.000, 0.000, 0.000, 22:06:55.655
41, -117.63, -234.04, -6.45, -858.76, 0.000, 0.000, 0.000, 22:06:55.670
42, -364.66, -442.15, -35.20, -900.60, 0.000, 0.000, 0.000, 22:06:55.671
43, 543.53, 526.09, 26.95, -842.60, 0.000, 0.000, 0.000, 22:06:55.684
44, 229.88, 130.00, 15.79, -836.35, 0.000, 0.000, 0.000, 22:06:55.684
45, -451.09, -558.41, -47.41, -896.20, 0.000, 0.000, 0.000, 22:06:55.685
46, 272.59, 248.19, 7.69, -856.58, 0.000, 0.000, 0.000, 22:06:55.685
47, 492.68, 440.24, 42.86, -827.09, 0.000, 0.000, 0.000, 22:06:55.700
48, -373.67, -483.74, -21.70, -866.81, 0.000, 0.000, 0.000, 22:06:55.700
49, -87.49, -131.77, -12.74, -880.44, 0.000, 0.000, 0.000, 22:06:55.714
50, 632.09, 605.53, 57.68, -814.24, 0.000, 0.000, 0.000, 22:06:55.715
51, -112.97, -227.58, 4.78, -842.70, 0.000, 0.000, 0.000, 22:06:55.715
52, -365.03, -436.63, -37.01, -897.81, 0.000, 0.000, 0.000, 22:06:55.715
53, 532.46, 519.35, 41.43, -834.04, 0.000, 0.000, 0.000, 22:06:55.729
54, 207.56, 117.22, 12.58, -829.61, 0.000, 0.000, 0.000, 22:06:55.729
55, -462.58, -564.23, -42.97, -886.80, 0.000, 0.000, 0.000, 22:06:55.745
56, 260.93, 240.48, 11.71, -853.97, 0.000, 0.000, 0.000, 22:06:55.745
57, 504.89, 439.04, 52.67, -808.18, 0.000, 0.000, 0.000, 22:06:55.745
58, -364.41, -490.68, -22.56, -873.20, 0.000, 0.000, 0.000, 22:06:55.745
59, -71.06, -137.66, -13.99, -886.06, 0.000, 0.000, 0.000, 22:06:55.759
60, 619.21, 597.01, 48.61, -809.35, 0.000, 0.000, 0.000, 22:06:55.760
61, -130.15, -241.16, -6.26, -853.54, 0.000, 0.000, 0.000, 22:06:55.774
62, -378.63, -445.35, -38.17, -899.71, 0.000, 0.000, 0.000, 22:06:55.774
63, 514.20, 509.67, 29.00, -839.27, 0.000, 0.000, 0.000, 22:06:55.775
64, 221.88, 125.77, 21.11, -827.99, 0.000, 0.000, 0.000, 22:06:55.775
65, -465.60, -567.70, -33.31, -894.47, 0.000, 0.000, 0.000, 22:06:55.790
66, 251.12, 227.69, 8.48, -871.36, 0.000, 0.000, 0.000, 22:06:55.790
67, 494.00, 438.93, 33.48, -832.96, 0.000, 0.000, 0.000, 22:06:55.804
68, -368.28, -485.00, -9.33, -865.35, 0.000, 0.000, 0.000, 22:06:55.804
69, -93.92, -138.87, -13.02, -881.36, 0.000, 0.000, 0.000, 22:06:55.805
70, 633.63, 609.77, 74.92, -793.73, 0.000, 0.000, 0.000, 22:06:55.805
71, -129.49, -257.67, 22.31, -827.73, 0.000, 0.000, 0.000, 22:06:55.819
72, -354.82, -436.69, 28.87, -822.74, 0.000, 0.000, 0.000, 22:06:55.819
73, 535.24, 510.99, 122.24, -736.86, 0.000, 0.000, 0.000, 22:06:55.835
74, 192.96, 98.11, 129.51, -710.20, 0.000, 0.000, 0.000, 22:06:55.835
75, -463.73, -563.90, 100.46, -730.35, 0.000, 0.000, 0.000, 22:06:55.835
76, 239.98, 222.56, 182.58, -665.26, 0.000, 0.000, 0.000, 22:06:55.835
77, 502.25, 459.87, 273.76, -577.63, 0.000, 0.000, 0.000, 22:06:55.850
78, -357.39, -473.83, 233.21, -598.12, 0.000, 0.000, 0.000, 22:06:55.850
79, -77.97, -130.94, 240.82, -607.46, 0.000, 0.000, 0.000, 22:06:55.865
80, 643.58, 612.08, 299.91, -546.98, 0.000, 0.000, 0.000, 22:06:55.865
81, -89.25, -205.45, 259.59, -583.05, 0.000, 0.000, 0.000, 22:06:55.865
82, -342.41, -418.85, 224.15, -621.21, 0.000, 0.000, 0.000, 22:06:55.865
83, 573.90, 546.86, 269.42, -590.73, 0.000, 0.000, 0.000, 22:06:55.880
84, 240.98, 141.57, 214.71, -631.26, 0.000, 0.000, 0.000, 22:06:55.880
85, -434.57, -530.45, 168.00, -678.78, 0.000, 0.000, 0.000, 22:06:55.895
86, 263.08, 255.05, 188.79, -668.15, 0.000, 0.000, 0.000, 22:06:55.895
87, 512.26, 459.60, 189.12, -654.20, 0.000, 0.000, 0.000, 22:06:55.895
88, -354.91, -464.83, 116.52, -729.69, 0.000, 0.000, 0.000, 22:06:55.895
89, -49.80, -95.87, 114.68, -740.20, 0.000, 0.000, 0.000, 22:06:55.909
90, 651.35, 625.86, 140.22, -708.23, 0.000, 0.000, 0.000, 22:06:55.909
91, -145.74, -237.50, 45.84, -788.46, 0.000, 0.000, 0.000, 22:06:55.924
92, -322.12, -410.25, 49.25, -797.29, 0.000, 0.000, 0.000, 22:06:55.924
93, 520.96, 520.87, 67.78, -800.72, 0.000, 0.000, 0.000, 22:06:55.925
94, 238.04, 150.09, 44.91, -808.83, 0.000, 0.000, 0.000, 22:06:55.925
95, -448.10, -554.05, -38.36, -899.49, 0.000, 0.000, 0.000, 22:06:55.946
96, 289.48, 256.50, -8.57, -881.34, 0.000, 0.000, 0.000, 22:06:55.946
97, 487.64, 447.53, -25.43, -872.38, 0.000, 0.000, 0.000, 22:06:55.955
98, -346.87, -469.47, -73.70, -922.45, 0.000, 0.000, 0.000, 22:06:55.955
99, -77.80, -112.98, -72.87, -940.17, 0.000, 0.000, 0.000, 22:06:55.955
100, 600.52, 570.70, -48.53, -906.98, 0.000, 0.000, 0.000, 22:06:55.955
101, -88.80, -216.43, -87.84, -945.31, 0.000, 0.000, 0.000, 22:06:55.969
102, -358.90, -433.17, -110.61, -979.09, 0.000, 0.000, 0.000, 22:06:55.969
103, 524.38, 526.64, -31.62, -909.83, 0.000, 0.000, 0.000, 22:06:55.984
104, 239.10, 133.50, -53.48, -928.36, 0.000, 0.000, 0.000, 22:06:55.984
105, -461.97, -568.38, -123.91, -992.35, 0.000, 0.000, 0.000, 22:06:55.985
106, 256.21, 224.41, -70.54, -957.21, 0.000, 0.000, 0.000, 22:06:55.985
107, 510.92, 465.25, -50.39, -920.56, 0.000, 0.000, 0.000, 22:06:56.000
108, -379.72, -502.02, -132.88, -985.08, 0.000, 0.000, 0.000, 22:06:56.000
109, -100.95, -136.87, -93.20, -958.44, 0.000, 0.000, 0.000, 22:06:56.015
110, 629.06, 589.37, -46.09, -917.44, 0.000, 0.000, 0.000, 22:06:56.015
111, -116.53, -227.72, -96.22, -953.77, 0.000, 0.000, 0.000, 22:06:56.015
112, -384.98, -454.37, -126.04, -994.55, 0.000, 0.000, 0.000, 22:06:56.015
113, 517.19, 510.70, -51.06, -926.41, 0.000, 0.000, 0.000, 22:06:56.029
114, 200.50, 105.45, -85.59, -943.55, 0.000, 0.000, 0.000, 22:06:56.029
115, -500.08, -591.32, -133.21, -1000.17, 0.000, 0.000, 0.000, 22:06:56.044
116, 245.80, 214.74, -76.86, -957.35, 0.000, 0.000, 0.000, 22:06:56.044
117, 513.78, 441.79, -55.85, -918.74, 0.000, 0.000, 0.000, 22:06:56.045
118, -353.62, -482.91, -113.68, -981.36, 0.000, 0.000, 0.000, 22:06:56.045
119, -88.09, -135.30, -81.35, -962.75, 0.000, 0.000, 0.000, 22:06:56.059
120, 637.47, 609.44, -25.14, -903.31, 0.000, 0.000, 0.000, 22:06:56.059
121, -96.17, -206.53, -56.93, -936.18, 0.000, 0.000, 0.000, 22:06:56.074
122, -338.22, -413.75, -85.96, -952.48, 0.000, 0.000, 0.000, 22:06:56.074
123, 523.09, 512.07, -58.03, -928.13, 0.000, 0.000, 0.000, 22:06:56.075
124, 267.25, 156.44, -28.97, -888.13, 0.000, 0.000, 0.000, 22:06:56.075
125, -451.49, -558.58, -92.59, -964.56, 0.000, 0.000, 0.000, 22:06:56.089
126, 230.71, 203.92, -66.13, -935.99, 0.000, 0.000, 0.000, 22:06:56.089
127, 498.98, 430.24, -29.98, -899.40, 0.000, 0.000, 0.000, 22:06:56.104
128, -380.85, -495.24, -104.58, -956.90, 0.000, 0.000, 0.000, 22:06:56.104
129, -87.97, -139.80, -84.33, -945.41, 0.000, 0.000, 0.000, 22:06:56.105
130, 626.46, 591.16, -28.67, -899.91, 0.000, 0.000, 0.000, 22:06:56.105
131, -125.55, -241.99, -78.87, -926.14, 0.000, 0.000, 0.000, 22:06:56.120
132, -366.56, -426.86, -83.23, -949.15, 0.000, 0.000, 0.000, 22:06:56.120
133, 529.58, 509.68, -36.15, -902.44, 0.000, 0.000, 0.000, 22:06:56.135
134, 248.58, 142.93, -43.08, -894.19, 0.000, 0.000, 0.000, 22:06:56.135
135, -472.90, -550.60, -91.90, -947.30, 0.000, 0.000, 0.000, 22:06:56.135
136, 249.40, 225.66, -35.06, -906.71, 0.000, 0.000, 0.000, 22:06:56.135
137, 513.68, 464.61, -8.66, -872.55, 0.000, 0.000, 0.000, 22:06:56.150
138, -345.52, -465.26, -53.33, -908.32, 0.000, 0.000, 0.000, 22:06:56.150
139, -87.49, -133.10, -40.46, -907.15, 0.000, 0.000, 0.000, 22:06:56.164
140, 643.96, 616.46, 35.18, -833.37, 0.000, 0.000, 0.000, 22:06:56.164
141, -94.41, -205.40, -27.72, -874.19, 0.000, 0.000, 0.000, 22:06:56.165
142, -378.89, -444.50, -70.46, -918.44, 0.000, 0.000, 0.000, 22:06:56.165
143, 523.02, 524.13, 22.37, -849.56, 0.000, 0.000, 0.000, 22:06:56.179
144, 243.73, 153.49, 7.89, -857.99, 0.000, 0.000, 0.000, 22:06:56.179
145, -451.58, -565.83, -54.00, -905.24, 0.000, 0.000, 0.000, 22:06:56.194
146, 262.05, 236.44, 15.00, -860.90, 0.000, 0.000, 0.000, 22:06:56.194
147, 517.26, 461.86, 41.87, -823.78, 0.000, 0.000, 0.000, 22:06:56.195
148, -361.89, -469.44, -33.47, -875.57, 0.000, 0.000, 0.000, 22:06:56.195
149, -80.64, -123.88, -8.28, -877.05, 0.000, 0.000, 0.000, 22:06:56.210
150, 652.19, 630.97, 59.95, -812.27, 0.000, 0.000, 0.000, 22:06:56.210
151, -103.17, -217.87, -21.63, -867.33, 0.000, 0.000, 0.000, 22:06:56.224
152, -343.27, -419.42, -22.53, -878.82, 0.000, 0.000, 0.000, 22:06:56.224
153, 530.92, 512.28, 28.70, -825.31, 0.000, 0.000, 0.000, 22:06:56.225
154, 239.32, 143.62, 32.28, -809.07, 0.000, 0.000, 0.000, 22:06:56.225
155, -429.05, -536.22, -16.73, -865.99, 0.000, 0.000, 0.000, 22:06:56.240
156, 274.72, 238.33, 30.45, -830.30, 0.000, 0.000, 0.000, 22:06:56.240
157, 537.45, 464.87, 68.11, -786.72, 0.000, 0.000, 0.000, 22:06:56.255
158, -356.78, -471.48, 6.42, -839.67, 0.000, 0.000, 0.000, 22:06:56.255
159, -105.44, -141.94, 5.71, -839.80, 0.000, 0.000, 0.000, 22:06:56.255
160, 639.01, 622.39, 103.57, -766.61, 0.000, 0.000, 0.000, 22:06:56.255
161, -101.18, -212.96, 51.06, -801.22, 0.000, 0.000, 0.000, 22:06:56.269
162, -336.54, -430.92, 48.47, -812.13, 0.000, 0.000, 0.000, 22:06:56.269
163, 549.80, 527.32, 136.76, -735.00, 0.000, 0.000, 0.000, 22:06:56.284
164, 245.53, 152.15, 145.12, -710.27, 0.000, 0.000, 0.000, 22:06:56.284
165, -427.03, -524.15, 145.31, -703.29, 0.000, 0.000, 0.000, 22:06:56.285
166, 248.69, 223.23, 201.51, -659.00, 0.000, 0.000, 0.000, 22:06:56.285
167, 523.98, 468.64, 284.17, -567.86, 0.000, 0.000, 0.000, 22:06:56.299
168, -333.81, -453.77, 239.45, -598.01, 0.000, 0.000, 0.000, 22:06:56.299
169, -81.74, -123.31, 252.65, -595.49, 0.000, 0.000, 0.000, 22:06:56.315
170, 651.37, 628.47, 314.21, -525.01, 0.000, 0.000, 0.000, 22:06:56.315
171, -76.75, -183.26, 263.13, -561.48, 0.000, 0.000, 0.000, 22:06:56.316
172, -333.72, -413.16, 231.46, -603.92, 0.000, 0.000, 0.000, 22:06:56.316
173, 551.02, 534.27, 277.55, -577.55, 0.000, 0.000, 0.000, 22:06:56.331
174, 253.45, 166.86, 239.41, -589.64, 0.000, 0.000, 0.000, 22:06:56.331
175, -425.86, -533.69, 158.51, -669.92, 0.000, 0.000, 0.000, 22:06:56.345
176, 221.88, 213.76, 177.16, -682.95, 0.000, 0.000, 0.000, 22:06:56.345
177, 504.96, 456.47, 181.24, -677.02, 0.000, 0.000, 0.000, 22:06:56.345
178, -377.31, -490.97, 79.99, -774.80, 0.000, 0.000, 0.000, 22:06:56.345
179, -54.55, -123.26, 88.18, -774.85, 0.000, 0.000, 0.000, 22:06:56.360
180, 646.46, 622.54, 104.42, -756.51, 0.000, 0.000, 0.000, 22:06:56.360
181, -79.42, -204.19, 45.72, -811.06, 0.000, 0.000, 0.000, 22:06:56.375
182, -366.30, -436.50, -21.23, -882.85, 0.000, 0.000, 0.000, 22:06:56.375
183, 556.14, 538.09, 31.53, -843.08, 0.000, 0.000, 0.000, 22:06:56.375
184, 256.27, 151.61, 0.94, -858.09, 0.000, 0.000, 0.000, 22:06:56.375
185, -463.37, -558.43, -87.10, -940.92, 0.000, 0.000, 0.000, 22:06:56.391
186, 250.27, 229.48, -45.72, -924.02, 0.000, 0.000, 0.000, 22:06:56.391
187, 534.52, 472.48, -39.76, -903.88, 0.000, 0.000, 0.000, 22:06:56.404
188, -333.09, -474.08, -118.53, -961.73, 0.000, 0.000, 0.000, 22:06:56.405
189, -109.55, -151.47, -108.38, -980.17, 0.000, 0.000, 0.000, 22:06:56.412
190, 607.18, 590.85, -64.65, -931.66, 0.000, 0.000, 0.000, 22:06:56.412
191, -106.17, -215.63, -122.52, -975.87, 0.000, 0.000, 0.000, 22:06:56.419
192, -359.45, -456.65, -148.42, -1001.81, 0.000, 0.000, 0.000, 22:06:56.420
193, 494.61, 491.91, -86.78, -955.91, 0.000, 0.000, 0.000, 22:06:56.435
194, 245.97, 136.91, -97.49, -950.84, 0.000, 0.000, 0.000, 22:06:56.435
195, -442.21, -550.33, -143.73, -991.00, 0.000, 0.000, 0.000, 22:06:56.435
196, 269.81, 233.32, -79.82, -958.24, 0.000, 0.000, 0.000, 22:06:56.435
197, 508.82, 457.29, -69.39, -940.32, 0.000, 0.000, 0.000, 22:06:56.450
198, -364.52, -483.27, -141.62, -989.53, 0.000, 0.000, 0.000, 22:06:56.450
199, -91.26, -140.00, -106.72, -968.34, 0.000, 0.000, 0.000, 22:06:56.464
200, 618.58, 602.33, -41.42, -909.24, 0.000, 0.000, 0.000, 22:06:56.464
0, -82.69, -201.02, -91.26, -941.92, 0.000, 0.000, 0.000, 22:06:56.465
1, -360.86, -430.06, -124.91, -970.55, 0.000, 0.000, 0.000, 22:06:56.479
2, 519.46, 509.77, -50.76, -921.96, 0.000, 0.000, 0.000, 22:06:56.479
3, 241.52, 157.15, -59.33, -920.74, 0.000, 0.000, 0.000, 22:06:56.480
4, -454.98, -539.49, -104.63, -954.36, 0.000, 0.000, 0.000, 22:06:56.480
5, 265.43, 226.68, -39.16, -915.16, 0.000, 0.000, 0.000, 22:06:56.494
6, 521.23, 465.56, -21.60, -893.72, 0.000, 0.000, 0.000, 22:06:56.494
7, -345.24, -469.05, -95.86, -946.74, 0.000, 0.000, 0.000, 22:06:56.510
8, -91.07, -148.80, -86.81, -941.92, 0.000, 0.000, 0.000, 22:06:56.510
9, 636.94, 609.83, -30.03, -893.45, 0.000, 0.000, 0.000, 22:06:56.510
10, -86.33, -202.68, -60.61, -905.80, 0.000, 0.000, 0.000, 22:06:56.510
11, -372.36, -439.51, -78.36, -939.30, 0.000, 0.000, 0.000, 22:06:56.525
12, 507.96, 505.64, -1.62, -873.80, 0.000, 0.000, 0.000, 22:06:56.525
13, 240.32, 145.80, -16.72, -872.49, 0.000, 0.000, 0.000, 22:06:56.540
14, -443.83, -561.94, -84.57, -929.12, 0.000, 0.000, 0.000, 22:06:56.540
15, 267.77, 223.84, -26.69, -896.31, 0.000, 0.000, 0.000, 22:06:56.540
16, 533.50, 477.53, 3.78, -855.20, 0.000, 0.000, 0.000, 22:06:56.540
17, -357.15, -468.15, -67.79, -906.88, 0.000, 0.000, 0.000, 22:06:56.555
18, -108.55, -165.77, -59.48, -918.15, 0.000, 0.000, 0.000, 22:06:56.555
19, 620.47, 596.63, -6.21, -860.89, 0.000, 0.000, 0.000, 22:06:56.570
20, -76.35, -197.60, -32.06, -884.69, 0.000, 0.000, 0.000, 22:06:56.570
21, -350.31, -431.08, -69.56, -923.23, 0.000, 0.000, 0.000, 22:06:56.570
22, 533.40, 522.51, -3.91, -868.33, 0.000, 0.000, 0.000, 22:06:56.570
23, 243.07, 161.97, -4.43, -851.50, 0.000, 0.000, 0.000, 22:06:56.585
24, -475.02, -579.96, -71.58, -920.43, 0.000, 0.000, 0.000, 22:06:56.585
25, 241.72, 215.04, -19.03, -883.23, 0.000, 0.000, 0.000, 22:06:56.600
26, 526.76, 472.87, 21.66, -843.66, 0.000, 0.000, 0.000, 22:06:56.600
27, -357.07, -474.63, -43.40, -889.84, 0.000, 0.000, 0.000, 22:06:56.601
28, -98.77, -147.40, -31.09, -888.06, 0.000, 0.000, 0.000, 22:06:56.601
29, 659.05, 623.08, 45.18, -822.17, 0.000, 0.000, 0.000, 22:06:56.615
30, -86.89, -195.04, -16.26, -868.36, 0.000, 0.000, 0.000, 22:06:56.615
31, -355.04, -444.64, -63.28, -895.63, 0.000, 0.000, 0.000, 22:06:56.630
32, 502.44, 497.95, 22.54, -842.45, 0.000, 0.000, 0.000, 22:06:56.630
33, 240.14, 156.50, 20.69, -832.40, 0.000, 0.000, 0.000, 22:06:56.630
34, -453.39, -558.47, -52.62, -897.75, 0.000, 0.000, 0.000, 22:06:56.630
35, 227.45, 210.19, -4.98, -867.12, 0.000, 0.000, 0.000, 22:06:56.644
36, 519.52, 468.72, 25.80, -832.17, 0.000, 0.000, 0.000, 22:06:56.646
37, -357.08, -477.81, -51.48, -884.16, 0.000, 0.000, 0.000, 22:06:56.659
38, -99.29, -147.72, -24.91, -884.47, 0.000, 0.000, 0.000, 22:06:56.659
39, 628.38, 615.02, 33.74, -825.58, 0.000, 0.000, 0.000, 22:06:56.660
40, -92.06, -193.49, -4.11, -854.53, 0.000, 0.000, 0.000, 22:06:56.660
41, -352.93, -439.28, -33.34, -876.03, 0.000, 0.000, 0.000, 22:06:56.674
42, 508.46, 501.55, 25.13, -847.88, 0.000, 0.000, 0.000, 22:06:56.674
43, 249.41, 163.82, 25.25, -835.57, 0.000, 0.000, 0.000, 22:06:56.690
44, -474.81, -568.81, -28.18, -899.01, 0.000, 0.000, 0.000, 22:06:56.690
45, 222.39, 196.97, 5.10, -859.62, 0.000, 0.000, 0.000, 22:06:56.690
46, 501.81, 452.32, 42.62, -812.17, 0.000, 0.000, 0.000, 22:06:56.690
47, -343.84, -464.22, 12.03, -833.40, 0.000, 0.000, 0.000, 22:06:56.704
48, -96.49, -155.58, 47.64, -822.09, 0.000, 0.000, 0.000, 22:06:56.704
49, 612.32, 590.99, 113.12, -749.77, 0.000, 0.000, 0.000, 22:06:56.720
50, -76.97, -196.60, 109.36, -737.89, 0.000, 0.000, 0.000, 22:06:56.720
51, -365.58, -449.47, 104.94, -748.09, 0.000, 0.000, 0.000, 22:06:56.720
52, 517.89, 506.10, 186.51, -671.39, 0.000, 0.000, 0.000, 22:06:56.720
53, 261.79, 155.37, 204.54, -641.25, 0.000, 0.000, 0.000, 22:06:56.749
54, -443.70, -545.46, 177.10, -665.23, 0.000, 0.000, 0.000, 22:06:56.750
55, 244.42, 232.68, 222.70, -627.84, 0.000, 0.000, 0.000, 22:06:56.750
56, 527.65, 472.86, 245.41, -598.81, 0.000, 0.000, 0.000, 22:06:56.750
57, -340.26, -455.09, 176.02, -650.13, 0.000, 0.000, 0.000, 22:06:56.751
58, -85.31, -127.56, 175.72, -663.39, 0.000, 0.000, 0.000, 22:06:56.751
59, 650.91, 632.35, 216.06, -616.83, 0.000, 0.000, 0.000, 22:06:56.765
60, -69.65, -173.52, 172.76, -657.37, 0.000, 0.000, 0.000, 22:06:56.765
61, -355.67, -430.23, 114.63, -721.81, 0.000, 0.000, 0.000, 22:06:56.779
62, 526.49, 529.22, 170.18, -682.96, 0.000, 0.000, 0.000, 22:06:56.780
63, 267.50, 170.72, 156.17, -687.01, 0.000, 0.000, 0.000, 22:06:56.780
64, -451.50, -562.19, 64.71, -771.36, 0.000, 0.000, 0.000, 22:06:56.780
65, 248.00, 212.28, 91.41, -757.77, 0.000, 0.000, 0.000, 22:06:56.794
66, 511.05, 453.84, 114.73, -729.41, 0.000, 0.000, 0.000, 22:06:56.795
67, -344.21, -473.23, 53.72, -779.33, 0.000, 0.000, 0.000, 22:06:56.810
68, -129.58, -175.34, 42.58, -811.77, 0.000, 0.000, 0.000, 22:06:56.810
69, 630.63, 611.73, 99.76, -761.56, 0.000, 0.000, 0.000, 22:06:56.810
70, -68.99, -188.58, 35.80, -815.72, 0.000, 0.000, 0.000, 22:06:56.811
71, -371.55, -447.20, -39.73, -888.82, 0.000, 0.000, 0.000, 22:06:56.824
72, 512.85, 499.70, 16.58, -862.62, 0.000, 0.000, 0.000, 22:06:56.824
73, 243.16, 155.70, 1.24, -862.79, 0.000, 0.000, 0.000, 22:06:56.839
74, -455.58, -558.53, -92.85, -941.42, 0.000, 0.000, 0.000, 22:06:56.839
75, 236.89, 213.23, -53.94, -929.18, 0.000, 0.000, 0.000, 22:06:56.840
76, 530.65, 467.71, -28.38, -898.98, 0.000, 0.000, 0.000, 22:06:56.840
77, -355.00, -475.31, -127.76, -1000.79, 0.000, 0.000, 0.000, 22:06:56.857
78, -109.92, -150.44, -116.66, -1016.60, 0.000, 0.000, 0.000, 22:06:56.857
79, 627.98, 613.67, -69.41, -916.17, 0.000, 0.000, 0.000, 22:06:56.870
80, -76.01, -193.72, -128.23, -970.68, 0.000, 0.000, 0.000, 22:06:56.870
81, -382.18, -463.65, -148.98, -1006.41, 0.000, 0.000, 0.000, 22:06:56.870
82, 506.85, 500.68, -74.37, -955.47, 0.000, 0.000, 0.000, 22:06:56.870
83, 260.03, 164.80, -74.35, -947.78, 0.000, 0.000, 0.000, 22:06:56.892
84, -473.55, -578.98, -164.18, -1019.21, 0.000, 0.000, 0.000, 22:06:56.892
85, 182.77, 163.00, -122.44, -1000.24, 0.000, 0.000, 0.000, 22:06:56.900
86, 535.61, 472.81, -70.24, -943.49, 0.000, 0.000, 0.000, 22:06:56.900
87, -342.86, -465.09, -130.70, -996.61, 0.000, 0.000, 0.000, 22:06:56.900
88, -126.20, -172.99, -133.58, -993.52, 0.000, 0.000, 0.000, 22:06:56.900
89, 619.35, 599.96, -60.40, -934.75, 0.000, 0.000, 0.000, 22:06:56.915
90, -73.05, -197.56, -101.44, -961.29, 0.000, 0.000, 0.000, 22:06:56.915
91, -382.19, -463.51, -135.26, -997.52, 0.000, 0.000, 0.000, 22:06:56.930
92, 520.00, 499.13, -76.56, -940.96, 0.000, 0.000, 0.000, 22:06:56.930
93, 268.77, 161.34, -61.43, -917.08, 0.000, 0.000, 0.000, 22:06:56.930
94, -467.07, -561.06, -112.98, -975.15, 0.000, 0.000, 0.000, 22:06:56.930
95, 211.66, 189.75, -75.82, -954.99, 0.000, 0.000, 0.000, 22:06:56.946
96, 515.85, 467.63, -39.03, -905.05, 0.000, 0.000, 0.000, 22:06:56.946
97, -345.16, -469.80, -102.34, -967.61, 0.000, 0.000, 0.000, 22:06:56.959
98, -121.22, -168.00, -100.11, -949.90, 0.000, 0.000, 0.000, 22:06:56.959
99, 637.99, 613.16, -18.19, -883.77, 0.000, 0.000, 0.000, 22:06:56.960
100, -71.09, -178.31, -59.75, -908.93, 0.000, 0.000, 0.000, 22:06:56.960
101, -367.39, -456.27, -95.26, -955.69, 0.000, 0.000, 0.000, 22:06:56.976
102, 502.82, 492.39, -31.00, -899.92, 0.000, 0.000, 0.000, 22:06:56.976
103, 251.87, 168.36, -27.22, -884.28, 0.000, 0.000, 0.000, 22:06:56.990
104, -484.81, -579.18, -90.48, -932.77, 0.000, 0.000, 0.000, 22:06:56.990
105, 209.41, 189.86, -43.55, -903.62, 0.000, 0.000, 0.000, 22:06:56.990
106, 539.66, 490.40, 3.58, -852.12, 0.000, 0.000, 0.000, 22:06:56.990
107, -320.29, -440.65, -59.04, -900.53, 0.000, 0.000, 0.000, 22:06:57.005
108, -94.10, -145.83, -52.47, -920.16, 0.000, 0.000, 0.000, 22:06:57.005
109, 636.52, 616.17, 18.86, -857.03, 0.000, 0.000, 0.000, 22:06:57.019
110, -79.68, -195.19, -27.72, -884.71, 0.000, 0.000, 0.000, 22:06:57.019
111, -371.06, -452.99, -78.41, -931.30, 0.000, 0.000, 0.000, 22:06:57.020
112, 510.42, 508.90, -8.90, -873.11, 0.000, 0.000, 0.000, 22:06:57.020
113, 273.37, 190.46, -8.55, -861.44, 0.000, 0.000, 0.000, 22:06:57.034
114, -461.33, -572.32, -74.07, -920.65, 0.000, 0.000, 0.000, 22:06:57.034
115, 214.82, 190.31, -44.99, -895.95, 0.000, 0.000, 0.000, 22:06:57.050
116, 514.28, 463.90, 3.39, -854.55, 0.000, 0.000, 0.000, 22:06:57.050
117, -340.74, -460.59, -39.78, -885.11, 0.000, 0.000, 0.000, 22:06:57.051
118, -118.36, -177.10, -35.27, -893.63, 0.000, 0.000, 0.000, 22:06:57.051
119, 612.32, 591.00, 18.93, -836.10, 0.000, 0.000, 0.000, 22:06:57.065
120, -71.38, -192.70, 6.44, -845.17, 0.000, 0.000, 0.000, 22:06:57.065
121, -365.98, -462.19, -36.77, -886.36, 0.000, 0.000, 0.000, 22:06:57.080
122, 490.76, 476.51, 24.83, -836.21, 0.000, 0.000, 0.000, 22:06:57.080
123, 245.16, 148.85, 12.13, -835.81, 0.000, 0.000, 0.000, 22:06:57.081
124, -470.62, -567.13, -37.10, -882.64, 0.000, 0.000, 0.000, 22:06:57.081
125, 247.67, 210.06, 15.88, -846.89, 0.000, 0.000, 0.000, 22:06:57.095
126, 535.79, 488.03, 39.67, -810.56, 0.000, 0.000, 0.000, 22:06:57.095
127, -329.66, -454.84, -24.29, -872.44, 0.000, 0.000, 0.000, 22:06:57.109
128, -115.65, -173.31, -31.66, -885.07, 0.000, 0.000, 0.000, 22:06:57.110
129, 613.16, 607.85, 26.07, -840.06, 0.000, 0.000, 0.000, 22:06:57.110
130, -92.62, -200.28, -21.66, -864.43, 0.000, 0.000, 0.000, 22:06:57.110
131, -379.60, -452.94, -56.67, -897.83, 0.000, 0.000, 0.000, 22:06:57.125
132, 528.64, 507.53, 11.44, -847.74, 0.000, 0.000, 0.000, 22:06:57.125
133, 257.85, 167.18, 22.12, -839.00, 0.000, 0.000, 0.000, 22:06:57.139
134, -435.78, -551.31, -31.44, -880.79, 0.000, 0.000, 0.000, 22:06:57.139
135, 239.39, 208.07, 6.90, -846.43, 0.000, 0.000, 0.000, 22:06:57.140
136, 537.62, 474.34, 37.10, -812.48, 0.000, 0.000, 0.000, 22:06:57.140
137, -361.62, -472.97, -12.64, -856.75, 0.000, 0.000, 0.000, 22:06:57.155
138, -130.53, -177.94, -2.02, -857.42, 0.000, 0.000, 0.000, 22:06:57.155
139, 626.80, 607.24, 59.32, -797.95, 0.000, 0.000, 0.000, 22:06:57.169
140, -55.11, -178.38, 35.66, -814.08, 0.000, 0.000, 0.000, 22:06:57.169
141, -374.60, -462.09, 1.10, -844.27, 0.000, 0.000, 0.000, 22:06:57.170
142, 518.42, 494.50, 75.68, -775.56, 0.000, 0.000, 0.000, 22:06:57.170
143, 246.81, 170.34, 95.35, -750.95, 0.000, 0.000, 0.000, 22:06:57.184
144, -470.21, -564.67, 63.91, -779.55, 0.000, 0.000, 0.000, 22:06:57.184
145, 213.65, 192.57, 121.47, -735.69, 0.000, 0.000, 0.000, 22:06:57.200
146, 536.30, 483.03, 191.19, -648.42, 0.000, 0.000, 0.000, 22:06:57.200
147, -337.32, -451.08, 165.50, -668.17, 0.000, 0.000, 0.000, 22:06:57.200
148, -95.28, -149.97, 196.66, -652.77, 0.000, 0.000, 0.000, 22:06:57.200
149, 628.74, 616.35, 274.77, -587.88, 0.000, 0.000, 0.000, 22:06:57.215
150, -67.56, -172.13, 243.88, -597.55, 0.000, 0.000, 0.000, 22:06:57.215
151, -356.89, -449.48, 204.92, -650.64, 0.000, 0.000, 0.000, 22:06:57.229
152, 538.38, 507.90, 271.28, -595.23, 0.000, 0.000, 0.000, 22:06:57.229
153, 288.12, 186.22, 250.87, -586.67, 0.000, 0.000, 0.000, 22:06:57.230
154, -460.28, -553.43, 182.57, -655.38, 0.000, 0.000, 0.000, 22:06:57.230
155, 220.24, 211.01, 221.18, -643.00, 0.000, 0.000, 0.000, 22:06:57.251
156, 559.53, 492.78, 224.43, -631.34, 0.000, 0.000, 0.000, 22:06:57.251
157, -330.55, -447.09, 146.26, -701.93, 0.000, 0.000, 0.000, 22:06:57.259
158, -117.43, -161.73, 123.08, -739.36, 0.000, 0.000, 0.000, 22:06:57.259
159, 663.55, 626.65, 164.00, -710.16, 0.000, 0.000, 0.000, 22:06:57.260
160, -73.68, -185.24, 122.87, -735.42, 0.000, 0.000, 0.000, 22:06:57.260
161, -384.90, -452.86, 78.14, -787.68, 0.000, 0.000, 0.000, 22:06:57.274
162, 479.93, 485.10, 103.73, -806.72, 0.000, 0.000, 0.000, 22:06:57.274
163, 275.98, 184.60, 83.95, -738.59, 0.000, 0.000, 0.000, 22:06:57.289
164, -450.10, -557.83, 11.55, -823.33, 0.000, 0.000, 0.000, 22:06:57.289
165, 222.91, 197.72, 38.13, -836.70, 0.000, 0.000, 0.000, 22:06:57.290
166, 543.90, 495.07, 67.41, -806.72, 0.000, 0.000, 0.000, 22:06:57.290
167, -340.59, -466.54, -31.85, -899.84, 0.000, 0.000, 0.000, 22:06:57.305
168, -94.23, -149.56, -18.68, -899.48, 0.000, 0.000, 0.000, 22:06:57.305
169, 634.90, 606.44, 4.17, -880.73, 0.000, 0.000, 0.000, 22:06:57.319
170, -64.35, -186.29, -68.11, -927.04, 0.000, 0.000, 0.000, 22:06:57.320
171, -379.46, -459.44, -96.25, -990.25, 0.000, 0.000, 0.000, 22:06:57.320
172, 490.59, 483.77, -24.15, -905.74, 0.000, 0.000, 0.000, 22:06:57.320
173, 254.30, 162.78, -44.87, -905.03, 0.000, 0.000, 0.000, 22:06:57.334
174, -466.60, -575.31, -111.57, -969.10, 0.000, 0.000, 0.000, 22:06:57.334
175, 188.27, 177.42, -79.17, -962.99, 0.000, 0.000, 0.000, 22:06:57.352
176, 524.99, 482.59, -44.01, -882.30, 0.000, 0.000, 0.000, 22:06:57.352
177, -345.46, -473.13, -88.32, -934.91, 0.000, 0.000, 0.000, 22:06:57.352
178, -129.65, -186.14, -93.19, -951.77, 0.000, 0.000, 0.000, 22:06:57.352
179, 607.72, 596.60, -20.32, -888.52, 0.000, 0.000, 0.000, 22:06:57.365
180, -87.53, -202.12, -73.43, -930.98, 0.000, 0.000, 0.000, 22:06:57.365
181, -382.68, -452.97, -80.56, -950.69, 0.000, 0.000, 0.000, 22:06:57.380
182, 488.05, 481.11, -31.58, -911.14, 0.000, 0.000, 0.000, 22:06:57.380
183, 255.96, 173.25, -42.57, -906.17, 0.000, 0.000, 0.000, 22:06:57.380
184, -453.39, -571.02, -109.55, -976.66, 0.000, 0.000, 0.000, 22:06:57.380
185, 221.58, 186.22, -80.71, -941.23, 0.000, 0.000, 0.000, 22:06:57.395
186, 539.48, 489.01, -39.32, -901.50, 0.000, 0.000, 0.000, 22:06:57.395
187, -343.14, -465.94, -113.06, -957.94, 0.000, 0.000, 0.000, 22:06:57.409
188, -140.42, -199.35, -104.49, -965.63, 0.000, 0.000, 0.000, 22:06:57.409
189, 619.69, 599.23, -43.39, -902.04, 0.000, 0.000, 0.000, 22:06:57.410
190, -87.06, -194.32, -99.84, -941.38, 0.000, 0.000, 0.000, 22:06:57.410
191, -392.75, -462.95, -131.68, -974.67, 0.000, 0.000, 0.000, 22:06:57.425
192, 522.66, 510.22, -49.53, -904.17, 0.000, 0.000, 0.000, 22:06:57.426
193, 257.18, 187.07, -47.67, -901.62, 0.000, 0.000, 0.000, 22:06:57.439
194, -473.45, -561.06, -118.09, -968.58, 0.000, 0.000, 0.000, 22:06:57.440
195, 195.90, 186.57, -81.57, -945.48, 0.000, 0.000, 0.000, 22:06:57.440
196, 558.98, 500.35, -26.07, -879.34, 0.000, 0.000, 0.000, 22:06:57.440
197, -321.26, -428.41, -80.63, -937.49, 0.000, 0.000, 0.000, 22:06:57.455
198, -116.52, -189.30, -93.80, -947.49, 0.000, 0.000, 0.000, 22:06:57.455
199, 634.58, 625.94, -25.79, -878.44, 0.000, 0.000, 0.000, 22:06:57.469
200, -65.77, -175.45, -78.19, -913.40, 0.000, 0.000, 0.000, 22:06:57.469
0, -365.91, -447.88, -110.61, -952.28, 0.000, 0.000, 0.000, 22:06:57.470
1, 496.28, 484.74, -50.70, -917.91, 0.000, 0.000, 0.000, 22:06:57.484
2, 273.83, 186.05, -41.71, -899.10, 0.000, 0.000, 0.000, 22:06:57.484
3, -453.45, -570.02, -109.07, -948.23, 0.000, 0.000, 0.000, 22:06:57.485
4, 220.32, 194.65, -50.30, -916.63, 0.000, 0.000, 0.000, 22:06:57.485
5, 536.68, 484.69, -4.05, -873.23, 0.000, 0.000, 0.000, 22:06:57.499
6, -359.15, -472.10, -79.28, -903.15, 0.000, 0.000, 0.000, 22:06:57.499
7, -123.77, -184.64, -59.94, -904.08, 0.000, 0.000, 0.000, 22:06:57.514
8, 645.02, 624.47, 15.88, -842.80, 0.000, 0.000, 0.000, 22:06:57.514
9, -49.52, -172.22, -21.65, -880.10, 0.000, 0.000, 0.000, 22:06:57.515
10, -387.47, -469.82, -76.41, -935.51, 0.000, 0.000, 0.000, 22:06:57.515
11, 500.68, 493.56, -1.86, -863.75, 0.000, 0.000, 0.000, 22:06:57.529
12, 259.48, 179.32, -8.30, -852.39, 0.000, 0.000, 0.000, 22:06:57.529
13, -447.70, -554.12, -69.92, -912.11, 0.000, 0.000, 0.000, 22:06:57.544
14, 220.68, 185.71, -29.74, -896.94, 0.000, 0.000, 0.000, 22:06:57.544
15, 526.03, 482.07, 3.76, -840.97, 0.000, 0.000, 0.000, 22:06:57.545
16, -330.12, -456.60, -55.80, -903.11, 0.000, 0.000, 0.000, 22:06:57.545
17, -117.72, -173.20, -40.44, -912.32, 0.000, 0.000, 0.000, 22:06:57.560
18, 624.31, 611.99, 23.35, -847.14, 0.000, 0.000, 0.000, 22:06:57.560
19, -51.32, -174.42, -15.98, -857.92, 0.000, 0.000, 0.000, 22:06:57.574
20, -373.26, -466.52, -55.72, -896.09, 0.000, 0.000, 0.000, 22:06:57.574
21, 510.67, 490.48, 11.81, -856.21, 0.000, 0.000, 0.000, 22:06:57.575
22, 267.76, 177.87, 11.16, -853.82, 0.000, 0.000, 0.000, 22:06:57.575
23, -471.96, -581.79, -61.57, -920.97, 0.000, 0.000, 0.000, 22:06:57.590
24, 204.41, 169.88, -9.41, -867.37, 0.000, 0.000, 0.000, 22:06:57.590
25, 553.94, 488.57, 35.88, -818.96, 0.000, 0.000, 0.000, 22:06:57.605
26, -329.15, -455.00, -34.72, -878.27, 0.000, 0.000, 0.000, 22:06:57.605
27, -145.81, -197.98, -30.09, -885.45, 0.000, 0.000, 0.000, 22:06:57.605
28, 620.36, 599.32, 35.33, -822.84, 0.000, 0.000, 0.000, 22:06:57.606
29, -45.14, -175.11, -6.99, -859.54, 0.000, 0.000, 0.000, 22:06:57.619
30, -373.33, -467.17, -34.62, -893.11, 0.000, 0.000, 0.000, 22:06:57.620
31, 513.75, 489.32, 23.57, -837.27, 0.000, 0.000, 0.000, 22:06:57.634
32, 270.98, 189.31, 22.88, -834.10, 0.000, 0.000, 0.000, 22:06:57.635
33, -463.08, -563.87, -29.76, -878.38, 0.000, 0.000, 0.000, 22:06:57.635
34, 200.24, 177.91, 7.60, -863.86, 0.000, 0.000, 0.000, 22:06:57.635
35, 538.48, 491.69, 27.87, -820.94, 0.000, 0.000, 0.000, 22:06:57.649
36, -333.74, -459.46, -30.54, -877.39, 0.000, 0.000, 0.000, 22:06:57.650
37, -120.91, -191.57, -14.19, -882.99, 0.000, 0.000, 0.000, 22:06:57.664
38, 618.56, 600.02, 37.22, -829.93, 0.000, 0.000, 0.000, 22:06:57.664
39, -70.38, -174.61, -10.62, -852.00, 0.000, 0.000, 0.000, 22:06:57.665
40, -372.47, -454.83, -30.41, -882.98, 0.000, 0.000, 0.000, 22:06:57.665
41, 491.97, 484.64, 24.78, -844.02, 0.000, 0.000, 0.000, 22:06:57.686
42, 255.22, 169.93, 12.77, -844.45, 0.000, 0.000, 0.000, 22:06:57.686
43, -452.62, -565.87, -41.68, -881.55, 0.000, 0.000, 0.000, 22:06:57.695
44, 200.56, 174.21, -2.56, -859.73, 0.000, 0.000, 0.000, 22:06:57.695
45, 539.36, 493.34, 31.69, -809.17, 0.000, 0.000, 0.000, 22:06:57.695
46, -319.18, -463.70, -35.47, -881.44, 0.000, 0.000, 0.000, 22:06:57.695
47, -126.94, -188.90, -16.60, -876.94, 0.000, 0.000, 0.000, 22:06:57.710
48, 637.46, 617.74, 54.59, -810.91, 0.000, 0.000, 0.000, 22:06:57.710
49, -48.64, -172.44, 9.83, -838.19, 0.000, 0.000, 0.000, 22:06:57.724
50, -381.48, -467.38, -48.17, -908.96, 0.000, 0.000, 0.000, 22:06:57.724
51, 505.74, 488.42, 33.50, -833.02, 0.000, 0.000, 0.000, 22:06:57.725
52, 285.86, 191.22, 21.24, -833.63, 0.000, 0.000, 0.000, 22:06:57.725
53, -466.71, -580.10, -49.35, -902.17, 0.000, 0.000, 0.000, 22:06:57.739
54, 197.90, 166.14, -1.88, -862.93, 0.000, 0.000, 0.000, 22:06:57.740
55, 510.14, 468.00, 42.25, -821.65, 0.000, 0.000, 0.000, 22:06:57.755
56, -348.00, -459.16, -12.33, -859.46, 0.000, 0.000, 0.000, 22:06:57.755
57, -161.46, -213.05, -27.37, -875.27, 0.000, 0.000, 0.000, 22:06:57.755
58, 598.58, 588.76, 41.34, -822.79, 0.000, 0.000, 0.000, 22:06:57.755
59, -78.79, -196.02, -3.71, -846.37, 0.000, 0.000, 0.000, 22:06:57.770
60, -405.57, -490.19, -39.65, -890.64, 0.000, 0.000, 0.000, 22:06:57.770
61, 482.54, 471.52, 42.38, -823.52, 0.000, 0.000, 0.000, 22:06:57.784
62, 280.00, 182.96, 57.67, -810.23, 0.000, 0.000, 0.000, 22:06:57.784
63, -459.49, -579.87, -4.88, -854.77, 0.000, 0.000, 0.000, 22:06:57.785
64, 222.03, 191.15, 74.36, -806.66, 0.000, 0.000, 0.000, 22:06:57.785
65, 534.91, 476.41, 119.87, -758.77, 0.000, 0.000, 0.000, 22:06:57.800
66, -340.34, -449.04, 72.18, -772.77, 0.000, 0.000, 0.000, 22:06:57.800
67, -132.76, -191.60, 80.54, -774.47, 0.000, 0.000, 0.000, 22:06:57.814
68, 626.71, 611.12, 171.65, -697.66, 0.000, 0.000, 0.000, 22:06:57.814
69, -57.08, -190.87, 129.58, -732.41, 0.000, 0.000, 0.000, 22:06:57.815
70, -384.23, -471.03, 130.85, -747.71, 0.000, 0.000, 0.000, 22:06:57.815
71, 500.47, 481.53, 190.26, -686.04, 0.000, 0.000, 0.000, 22:06:57.829
72, 306.79, 199.27, 206.01, -659.52, 0.000, 0.000, 0.000, 22:06:57.829
73, -438.43, -550.84, 131.72, -695.74, 0.000, 0.000, 0.000, 22:06:57.845
74, 229.17, 199.44, 204.02, -652.58, 0.000, 0.000, 0.000, 22:06:57.845
75, 519.42, 484.34, 194.75, -663.74, 0.000, 0.000, 0.000, 22:06:57.845
76, -329.65, -450.45, 134.24, -710.02, 0.000, 0.000, 0.000, 22:06:57.845
77, -133.02, -193.94, 130.34, -725.41, 0.000, 0.000, 0.000, 22:06:57.859
78, 615.60, 600.88, 177.34, -660.93, 0.000, 0.000, 0.000, 22:06:57.860
79, -55.28, -173.48, 128.30, -706.96, 0.000, 0.000, 0.000, 22:06:57.874
80, -372.51, -467.82, 99.63, -752.82, 0.000, 0.000, 0.000, 22:06:57.874
81, 521.45, 498.60, 157.11, -701.64, 0.000, 0.000, 0.000, 22:06:57.875
82, 296.24, 199.31, 124.56, -712.61, 0.000, 0.000, 0.000, 22:06:57.875
83, -471.56, -578.32, 51.24, -792.66, 0.000, 0.000, 0.000, 22:06:57.889
84, 210.31, 163.93, 70.10, -793.91, 0.000, 0.000, 0.000, 22:06:57.890
85, 539.07, 491.05, 71.78, -772.27, 0.000, 0.000, 0.000, 22:06:57.905
86, -321.74, -441.12, 6.35, -843.89, 0.000, 0.000, 0.000, 22:06:57.905
87, -124.66, -191.23, -0.43, -850.30, 0.000, 0.000, 0.000, 22:06:57.905
88, 622.55, 601.80, 11.72, -843.53, 0.000, 0.000, 0.000, 22:06:57.906
89, -66.18, -187.49, -36.41, -877.35, 0.000, 0.000, 0.000, 22:06:57.919
90, -373.27, -459.97, -63.95, -925.92, 0.000, 0.000, 0.000, 22:06:57.919
91, 501.68, 489.12, -17.07, -875.04, 0.000, 0.000, 0.000, 22:06:57.934
92, 279.31, 182.96, -24.34, -875.19, 0.000, 0.000, 0.000, 22:06:57.934
93, -426.94, -542.44, -74.09, -937.10, 0.000, 0.000, 0.000, 22:06:57.935
94, 169.87, 140.46, -70.00, -931.92, 0.000, 0.000, 0.000, 22:06:57.935
95, 486.85, 449.56, -39.84, -885.56, 0.000, 0.000, 0.000, 22:06:57.949
96, -304.54, -433.53, -81.19, -921.76, 0.000, 0.000, 0.000, 22:06:57.949
97, -119.79, -187.30, -76.09, -937.13, 0.000, 0.000, 0.000, 22:06:57.964
98, 575.33, 556.68, -42.46, -900.67, 0.000, 0.000, 0.000, 22:06:57.964
99, -37.64, -148.50, -65.18, -921.82, 0.000, 0.000, 0.000, 22:06:57.965
100, -343.22, -429.96, -114.28, -964.04, 0.000, 0.000, 0.000, 22:06:57.965
101, 460.47, 434.42, -56.92, -923.79, 0.000, 0.000, 0.000, 22:06:57.979
102, 260.40, 165.95, -76.87, -921.04, 0.000, 0.000, 0.000, 22:06:57.980
103, -396.28, -509.68, -123.42, -972.57, 0.000, 0.000, 0.000, 22:06:57.995
104, 185.55, 157.57, -94.38, -946.60, 0.000, 0.000, 0.000, 22:06:57.995
105, 494.64, 431.79, -61.65, -921.01, 0.000, 0.000, 0.000, 22:06:57.995
106, -293.08, -417.02, -107.49, -952.66, 0.000, 0.000, 0.000, 22:06:57.995
107, -121.03, -187.74, -99.03, -961.88, 0.000, 0.000, 0.000, 22:06:58.010
108, 572.88, 534.01, -39.96, -904.65, 0.000, 0.000, 0.000, 22:06:58.010
109, -58.66, -187.39, -84.71, -936.41, 0.000, 0.000, 0.000, 22:06:58.027
110, -347.95, -430.69, -107.49, -954.29, 0.000, 0.000, 0.000, 22:06:58.027
111, 439.23, 419.94, -55.69, -914.76, 0.000, 0.000, 0.000, 22:06:58.032
112, 262.89, 168.82, -46.08, -913.58, 0.000, 0.000, 0.000, 22:06:58.032
113, -383.68, -493.98, -86.53, -928.11, 0.000, 0.000, 0.000, 22:06:58.040
114, 161.88, 141.10, -77.91, -931.52, 0.000, 0.000, 0.000, 22:06:58.040
115, 492.59, 431.67, -44.67, -886.88, 0.000, 0.000, 0.000, 22:06:58.056
116, -286.58, -414.60, -82.84, -941.18, 0.000, 0.000, 0.000, 22:06:58.056
117, -108.00, -174.16, -79.84, -941.47, 0.000, 0.000, 0.000, 22:06:58.057
118, 594.41, 556.26, -16.46, -879.78, 0.000, 0.000, 0.000, 22:06:58.057
119, -33.97, -152.51, -67.68, -910.38, 0.000, 0.000, 0.000, 22:06:58.070
120, -347.18, -432.49, -98.72, -945.76, 0.000, 0.000, 0.000, 22:06:58.070
121, 440.77, 421.34, -37.22, -884.61, 0.000, 0.000, 0.000, 22:06:58.084
122, 250.76, 162.63, -32.77, -894.24, 0.000, 0.000, 0.000, 22:06:58.085
123, -396.27, -499.17, -78.04, -920.82, 0.000, 0.000, 0.000, 22:06:58.085
124, 196.10, 159.39, -33.80, -900.11, 0.000, 0.000, 0.000, 22:06:58.085
125, 503.01, 456.77, 0.05, -857.33, 0.000, 0.000, 0.000, 22:06:58.099
126, -285.38, -406.44, -67.13, -909.14, 0.000, 0.000, 0.000, 22:06:58.099
127, -118.80, -172.62, -57.13, -927.21, 0.000, 0.000, 0.000, 22:06:58.114
128, 575.84, 564.55, 2.33, -858.38, 0.000, 0.000, 0.000, 22:06:58.114
129, -43.69, -159.42, -48.94, -883.69, 0.000, 0.000, 0.000, 22:06:58.115
130, -325.70, -412.69, -68.37, -910.47, 0.000, 0.000, 0.000, 22:06:58.115
131, 456.59, 439.81, -19.33, -869.35, 0.000, 0.000, 0.000, 22:06:58.129
132, 274.60, 171.57, -18.48, -859.02, 0.000, 0.000, 0.000, 22:06:58.129
133, -393.50, -508.73, -66.09, -919.96, 0.000, 0.000, 0.000, 22:06:58.145
134, 180.13, 142.40, -25.04, -895.25, 0.000, 0.000, 0.000, 22:06:58.145
135, 498.30, 441.62, 8.03, -838.27, 0.000, 0.000, 0.000, 22:06:58.145
136, -294.26, -414.54, -38.99, -884.11, 0.000, 0.000, 0.000, 22:06:58.145
137, -123.89, -177.43, -34.59, -891.75, 0.000, 0.000, 0.000, 22:06:58.160
138, 567.02, 554.74, 19.46, -832.74, 0.000, 0.000, 0.000, 22:06:58.160
139, -43.95, -160.81, -18.33, -873.04, 0.000, 0.000, 0.000, 22:06:58.176
140, -332.44, -420.31, -31.16, -881.43, 0.000, 0.000, 0.000, 22:06:58.176
141, 450.28, 435.07, 3.88, -851.71, 0.000, 0.000, 0.000, 22:06:58.177
142, 251.43, 170.83, 2.71, -842.60, 0.000, 0.000, 0.000, 22:06:58.177
143, -410.41, -511.37, -52.02, -894.28, 0.000, 0.000, 0.000, 22:06:58.190
144, 176.28, 140.53, -9.53, -876.39, 0.000, 0.000, 0.000, 22:06:58.190
145, 501.14, 450.89, 18.95, -838.10, 0.000, 0.000, 0.000, 22:06:58.205
146, -294.72, -411.33, -37.44, -875.63, 0.000, 0.000, 0.000, 22:06:58.205
147, -128.33, -192.02, -37.04, -896.26, 0.000, 0.000, 0.000, 22:06:58.206
148, 574.85, 543.95, 20.56, -828.00, 0.000, 0.000, 0.000, 22:06:58.206
149, -76.39, -175.47, -17.89, -866.57, 0.000, 0.000, 0.000, 22:06:58.220
150, -356.92, -442.19, -53.94, -898.82, 0.000, 0.000, 0.000, 22:06:58.220
151, 468.04, 440.33, 15.22, -840.93, 0.000, 0.000, 0.000, 22:06:58.234
152, 276.84, 184.58, 15.84, -834.74, 0.000, 0.000, 0.000, 22:06:58.234
153, -396.43, -514.24, -48.20, -906.07, 0.000, 0.000, 0.000, 22:06:58.249
154, 168.96, 139.63, -27.13, -879.48, 0.000, 0.000, 0.000, 22:06:58.249
155, 502.46, 467.96, 22.09, -827.13, 0.000, 0.000, 0.000, 22:06:58.250
156, -280.00, -396.79, -24.77, -875.89, 0.000, 0.000, 0.000, 22:06:58.250
157, -120.32, -186.72, -32.40, -888.25, 0.000, 0.000, 0.000, 22:06:58.264
158, 575.16, 555.50, 35.44, -821.94, 0.000, 0.000, 0.000, 22:06:58.264
159, -43.56, -158.08, -21.32, -856.25, 0.000, 0.000, 0.000, 22:06:58.265
160, -325.87, -417.55, -31.46, -876.20, 0.000, 0.000, 0.000, 22:06:58.265
161, 438.92, 425.06, 11.99, -843.65, 0.000, 0.000, 0.000, 22:06:58.280
162, 260.38, 174.41, 21.92, -827.64, 0.000, 0.000, 0.000, 22:06:58.280
163, -399.10, -500.31, -41.44, -893.79, 0.000, 0.000, 0.000, 22:06:58.294
164, 194.63, 158.88, 4.42, -859.18, 0.000, 0.000, 0.000, 22:06:58.294
165, 491.94, 446.42, 18.93, -837.01, 0.000, 0.000, 0.000, 22:06:58.295
166, -282.35, -403.61, -32.43, -882.68, 0.000, 0.000, 0.000, 22:06:58.295
167, -137.71, -190.00, -40.79, -897.10, 0.000, 0.000, 0.000, 22:06:58.309
168, 576.51, 557.94, 34.93, -822.65, 0.000, 0.000, 0.000, 22:06:58.309
169, -35.80, -147.15, -10.75, -849.43, 0.000, 0.000, 0.000, 22:06:58.325
170, -338.42, -430.84, -36.70, -886.31, 0.000, 0.000, 0.000, 22:06:58.325
171, 448.20, 429.90, 17.91, -834.47, 0.000, 0.000, 0.000, 22:06:58.325
172, 262.23, 174.02, 25.95, -832.41, 0.000, 0.000, 0.000, 22:06:58.325
173, -410.08, -509.07, -14.40, -866.11, 0.000, 0.000, 0.000, 22:06:58.340
174, 181.33, 139.61, 6.30, -861.99, 0.000, 0.000, 0.000, 22:06:58.340
175, 494.95, 456.37, 24.84, -831.60, 0.000, 0.000, 0.000, 22:06:58.356
176, -294.19, -428.60, -14.19, -854.29, 0.000, 0.000, 0.000, 22:06:58.356
177, -133.74, -185.16, -4.97, -861.22, 0.000, 0.000, 0.000, 22:06:58.356
178, 608.64, 599.96, 51.46, -825.34, 0.000, 0.000, 0.000, 22:06:58.356
179, -33.75, -152.11, 10.13, -835.61, 0.000, 0.000, 0.000, 22:06:58.370
180, -389.62, -478.18, -34.85, -889.60, 0.000, 0.000, 0.000, 22:06:58.370
181, 485.36, 460.93, 23.16, -851.82, 0.000, 0.000, 0.000, 22:06:58.384
182, 292.19, 211.07, 29.91, -831.34, 0.000, 0.000, 0.000, 22:06:58.384
183, -440.19, -551.63, -31.28, -876.91, 0.000, 0.000, 0.000, 22:06:58.385
184, 198.60, 168.78, 1.31, -848.60, 0.000, 0.000, 0.000, 22:06:58.385
185, 553.80, 505.28, 34.10, -821.41, 0.000, 0.000, 0.000, 22:06:58.400
186, -314.92, -439.58, -28.86, -868.76, 0.000, 0.000, 0.000, 22:06:58.400
187, -158.55, -212.55, -30.48, -892.48, 0.000, 0.000, 0.000, 22:06:58.414
188, 621.31, 602.17, 39.57, -833.73, 0.000, 0.000, 0.000, 22:06:58.414
189, -48.37, -163.96, -10.10, -857.47, 0.000, 0.000, 0.000, 22:06:58.415
190, -401.44, -488.48, -44.54, -882.40, 0.000, 0.000, 0.000, 22:06:58.415
191, 476.09, 454.65, 19.78, -843.52, 0.000, 0.000, 0.000, 22:06:58.430
192, 302.83, 207.03, 19.51, -831.12, 0.000, 0.000, 0.000, 22:06:58.430
193, -433.72, -553.08, -36.34, -875.63, 0.000, 0.000, 0.000, 22:06:58.444
194, 182.28, 147.13, -13.55, -870.97, 0.000, 0.000, 0.000, 22:06:58.444
195, 535.62, 493.85, 20.73, -826.74, 0.000, 0.000, 0.000, 22:06:58.445
196, -317.89, -447.31, -24.56, -862.85, 0.000, 0.000, 0.000, 22:06:58.445
197, -160.59, -215.10, -23.68, -888.70, 0.000, 0.000, 0.000, 22:06:58.459
198, 620.26, 599.75, 21.51, -842.80, 0.000, 0.000, 0.000, 22:06:58.459
199, -27.91, -142.04, 4.97, -845.16, 0.000, 0.000, 0.000, 22:06:58.489
200, -403.49, -480.97, -37.64, -907.21, 0.000, 0.000, 0.000, 22:06:58.489
0, 480.16, 452.59, 5.39, -858.48, 0.000, 0.000, 0.000, 22:06:58.489
1, 311.29, 218.19, 10.09, -830.45, 0.000, 0.000, 0.000, 22:06:58.491
2, -460.17, -562.23, -56.85, -894.17, 0.000, 0.000, 0.000, 22:06:58.491
3, 176.29, 143.08, -6.00, -872.29, 0.000, 0.000, 0.000, 22:06:58.491
4, 534.68, 493.05, 20.39, -826.71, 0.000, 0.000, 0.000, 22:06:58.491
5, -329.43, -456.03, -48.86, -875.86, 0.000, 0.000, 0.000, 22:06:58.505
6, -173.87, -226.83, -38.00, -897.93, 0.000, 0.000, 0.000, 22:06:58.505
7, 641.01, 610.58, 34.11, -820.16, 0.000, 0.000, 0.000, 22:06:58.521
8, -6.31, -132.15, 5.18, -843.36, 0.000, 0.000, 0.000, 22:06:58.521
9, -389.80, -488.75, -45.48, -894.04, 0.000, 0.000, 0.000, 22:06:58.521
10, 480.47, 458.22, 7.87, -845.45, 0.000, 0.000, 0.000, 22:06:58.521
11, 301.89, 214.31, 21.78, -831.53, 0.000, 0.000, 0.000, 22:06:58.535
12, -461.89, -570.54, -26.70, -891.58, 0.000, 0.000, 0.000, 22:06:58.535
13, 178.82, 140.51, 5.87, -849.98, 0.000, 0.000, 0.000, 22:06:58.550
14, 539.20, 497.66, 34.09, -815.41, 0.000, 0.000, 0.000, 22:06:58.550
15, -318.22, -443.80, -33.44, -873.72, 0.000, 0.000, 0.000, 22:06:58.551
16, -134.26, -197.53, -16.51, -865.30, 0.000, 0.000, 0.000, 22:06:58.551
17, 619.43, 601.77, 33.09, -835.05, 0.000, 0.000, 0.000, 22:06:58.565
18, -40.88, -156.83, -4.59, -854.45, 0.000, 0.000, 0.000, 22:06:58.565
19, -390.40, -478.90, -35.03, -892.91, 0.000, 0.000, 0.000, 22:06:58.580
20, 468.89, 452.46, 7.72, -859.01, 0.000, 0.000, 0.000, 22:06:58.580
21, 303.53, 207.41, 1.25, -845.38, 0.000, 0.000, 0.000, 22:06:58.580
22, -452.28, -557.22, -52.01, -889.69, 0.000, 0.000, 0.000, 22:06:58.580
23, 192.09, 145.76, 2.05, -860.37, 0.000, 0.000, 0.000, 22:06:58.594
24, 540.56, 503.42, 31.53, -818.64, 0.000, 0.000, 0.000, 22:06:58.595
25, -317.40, -441.25, -24.06, -866.56, 0.000, 0.000, 0.000, 22:06:58.610
26, -160.86, -223.69, -22.84, -872.68, 0.000, 0.000, 0.000, 22:06:58.610
27, 612.66, 603.63, 41.57, -822.13, 0.000, 0.000, 0.000, 22:06:58.610
28, -27.39, -148.31, 7.85, -846.57, 0.000, 0.000, 0.000, 22:06:58.610
29, -374.04, -477.89, -30.93, -873.80, 0.000, 0.000, 0.000, 22:06:58.625
30, 491.73, 473.26, 32.19, -837.55, 0.000, 0.000, 0.000, 22:06:58.625
31, 287.09, 206.70, 17.45, -827.20, 0.000, 0.000, 0.000, 22:06:58.640
32, -468.05, -572.41, -39.67, -881.35, 0.000, 0.000, 0.000, 22:06:58.640
33, 184.70, 149.50, 17.49, -860.15, 0.000, 0.000, 0.000, 22:06:58.640
34, 563.90, 503.67, 52.20, -815.80, 0.000, 0.000, 0.000, 22:06:58.641
35, -316.68, -452.24, -27.56, -874.79, 0.000, 0.000, 0.000, 22:06:58.655
36, -154.41, -224.87, -27.85, -872.68, 0.000, 0.000, 0.000, 22:06:58.655
37, 624.49, 603.86, 44.59, -816.17, 0.000, 0.000, 0.000, 22:06:58.670
38, -29.39, -147.20, -1.66, -845.28, 0.000, 0.000, 0.000, 22:06:58.670
39, -405.45, -501.97, -40.73, -891.68, 0.000, 0.000, 0.000, 22:06:58.670
40, 469.27, 449.37, 8.26, -844.42, 0.000, 0.000, 0.000, 22:06:58.671
41, 315.39, 213.74, 20.89, -822.12, 0.000, 0.000, 0.000, 22:06:58.684
42, -443.91, -557.29, -42.00, -884.15, 0.000, 0.000, 0.000, 22:06:58.684
43, 173.55, 146.28, 1.53, -852.89, 0.000, 0.000, 0.000, 22:06:58.700
44, 556.53, 506.58, 40.07, -820.37, 0.000, 0.000, 0.000, 22:06:58.700
45, -303.53, -432.07, -21.22, -851.10, 0.000, 0.000, 0.000, 22:06:58.700
46, -167.67, -222.69, -22.38, -878.84, 0.000, 0.000, 0.000, 22:06:58.700
47, 606.04, 599.42, 36.09, -832.71, 0.000, 0.000, 0.000, 22:06:58.714
48, -35.12, -151.25, -3.96, -854.39, 0.000, 0.000, 0.000, 22:06:58.714
49, -393.66, -487.18, -36.83, -886.64, 0.000, 0.000, 0.000, 22:06:58.729
50, 494.53, 473.73, 9.83, -851.73, 0.000, 0.000, 0.000, 22:06:58.729
51, 305.15, 216.60, 14.16, -828.26, 0.000, 0.000, 0.000, 22:06:58.730
52, -467.79, -573.69, -28.73, -874.23, 0.000, 0.000, 0.000, 22:06:58.730
53, 182.43, 141.93, 12.13, -850.73, 0.000, 0.000, 0.000, 22:06:58.744
54, 567.98, 512.50, 46.64, -806.20, 0.000, 0.000, 0.000, 22:06:58.744
55, -291.96, -430.08, -16.77, -860.72, 0.000, 0.000, 0.000, 22:06:58.760
56, -157.74, -224.53, -20.92, -876.43, 0.000, 0.000, 0.000, 22:06:58.760
57, 624.79, 595.68, 44.06, -820.53, 0.000, 0.000, 0.000, 22:06:58.760
58, -46.54, -153.36, 1.70, -835.00, 0.000, 0.000, 0.000, 22:06:58.760
59, -404.30, -498.48, -38.71, -884.94, 0.000, 0.000, 0.000, 22:06:58.774
60, 471.38, 463.87, 23.40, -832.71, 0.000, 0.000, 0.000, 22:06:58.774
61, 301.79, 203.11, 12.79, -830.31, 0.000, 0.000, 0.000, 22:06:58.789
62, -440.37, -559.87, -30.50, -879.39, 0.000, 0.000, 0.000, 22:06:58.790
63, 193.55, 152.23, -3.98, -849.93, 0.000, 0.000, 0.000, 22:06:58.790
64, 555.23, 517.44, 35.78, -817.00, 0.000, 0.000, 0.000, 22:06:58.790
65, -302.98, -425.39, -19.32, -857.80, 0.000, 0.000, 0.000, 22:06:58.804
66, -157.51, -217.72, -20.18, -871.02, 0.000, 0.000, 0.000, 22:06:58.804
67, 613.23, 594.97, 28.49, -834.75, 0.000, 0.000, 0.000, 22:06:58.820
68, -44.76, -161.72, -7.62, -851.74, 0.000, 0.000, 0.000, 22:06:58.820
69, -383.09, -483.92, -30.98, -885.61, 0.000, 0.000, 0.000, 22:06:58.821
70, 467.46, 448.16, 15.94, -843.62, 0.000, 0.000, 0.000, 22:06:58.821
71, 299.31, 201.33, 9.59, -825.84, 0.000, 0.000, 0.000, 22:06:58.834
72, -471.72, -575.99, -43.72, -888.83, 0.000, 0.000, 0.000, 22:06:58.835
73, 173.29, 134.66, 3.81, -861.47, 0.000, 0.000, 0.000, 22:06:58.849
74, 568.97, 518.87, 39.45, -817.32, 0.000, 0.000, 0.000, 22:06:58.849
75, -321.29, -446.96, -28.08, -871.88, 0.000, 0.000, 0.000, 22:06:58.850
76, -158.67, -225.56, -18.57, -876.96, 0.000, 0.000, 0.000, 22:06:58.850
77, 629.54, 613.27, 41.49, -823.91, 0.000, 0.000, 0.000, 22:06:58.868
78, -21.07, -137.35, 3.51, -843.78, 0.000, 0.000, 0.000, 22:06:58.869
79, -393.65, -482.76, -47.05, -884.46, 0.000, 0.000, 0.000, 22:06:58.881
80, 470.38, 462.46, 23.47, -832.88, 0.000, 0.000, 0.000, 22:06:58.881
81, 294.90, 221.04, 14.06, -836.11, 0.000, 0.000, 0.000, 22:06:58.881
82, -448.60, -564.10, -54.16, -889.45, 0.000, 0.000, 0.000, 22:06:58.881
83, 169.61, 141.18, -13.37, -871.92, 0.000, 0.000, 0.000, 22:06:58.895
84, 566.85, 506.67, 37.52, -815.36, 0.000, 0.000, 0.000, 22:06:58.895
85, -304.36, -430.29, -26.55, -867.84, 0.000, 0.000, 0.000, 22:06:58.909
86, -168.06, -239.61, -60.94, -906.80, 0.000, 0.000, 0.000, 22:06:58.909
87, 621.45, 604.08, 21.14, -834.73, 0.000, 0.000, 0.000, 22:06:58.912
88, -21.72, -133.47, -5.27, -852.73, 0.000, 0.000, 0.000, 22:06:58.912
89, -391.29, -487.66, -22.49, -877.44, 0.000, 0.000, 0.000, 22:06:58.924
90, 479.78, 467.41, 38.69, -826.12, 0.000, 0.000, 0.000, 22:06:58.924
91, 317.35, 238.36, 42.40, -824.16, 0.000, 0.000, 0.000, 22:06:58.939
92, -445.51, -563.19, -40.49, -878.45, 0.000, 0.000, 0.000, 22:06:58.940
93, 187.03, 156.94, 20.32, -839.50, 0.000, 0.000, 0.000, 22:06:58.940
94, 539.27, 497.90, 35.47, -820.66, 0.000, 0.000, 0.000, 22:06:58.940
95, -331.67, -444.89, -28.54, -863.58, 0.000, 0.000, 0.000, 22:06:58.955
96, -171.97, -232.77, -19.11, -879.52, 0.000, 0.000, 0.000, 22:06:58.955
97, 624.79, 608.35, 40.53, -815.97, 0.000, 0.000, 0.000, 22:06:58.970
98, -23.52, -136.22, 1.28, -842.28, 0.000, 0.000, 0.000, 22:06:58.970
99, -409.87, -492.31, -51.47, -892.87, 0.000, 0.000, 0.000, 22:06:58.971
100, 474.67, 458.87, 29.81, -843.79, 0.000, 0.000, 0.000, 22:06:58.971
101, 327.38, 236.24, 16.05, -837.68, 0.000, 0.000, 0.000, 22:06:58.991
102, -441.68, -554.60, -43.48, -888.31, 0.000, 0.000, 0.000, 22:06:58.991
103, 183.48, 151.38, -1.78, -862.53, 0.000, 0.000, 0.000, 22:06:59.000
104, 571.16, 522.32, 16.71, -833.45, 0.000, 0.000, 0.000, 22:06:59.000
105, -304.90, -432.73, -36.39, -887.75, 0.000, 0.000, 0.000, 22:06:59.000
106, -172.08, -228.27, -29.22, -890.44, 0.000, 0.000, 0.000, 22:06:59.000
107, 620.96, 595.55, 23.42, -832.88, 0.000, 0.000, 0.000, 22:06:59.015
108, -16.65, -126.22, 6.09, -848.31, 0.000, 0.000, 0.000, 22:06:59.015
109, -408.84, -502.62, -40.41, -889.90, 0.000, 0.000, 0.000, 22:06:59.030
110, 460.83, 451.79, 17.98, -850.94, 0.000, 0.000, 0.000, 22:06:59.030
111, 301.66, 228.72, 21.36, -830.17, 0.000, 0.000, 0.000, 22:06:59.030
112, -436.23, -559.48, -32.88, -871.60, 0.000, 0.000, 0.000, 22:06:59.030
113, 166.21, 131.75, -15.66, -869.01, 0.000, 0.000, 0.000, 22:06:59.045
114, 558.03, 506.20, 16.17, -833.74, 0.000, 0.000, 0.000, 22:06:59.045
115, -298.22, -435.16, -36.77, -888.90, 0.000, 0.000, 0.000, 22:06:59.060
116, -128.60, -213.92, -27.09, -879.10, 0.000, 0.000, 0.000, 22:06:59.060
117, 651.98, 618.78, 45.28, -822.49, 0.000, 0.000, 0.000, 22:06:59.060
118, -8.20, -120.00, 13.52, -844.19, 0.000, 0.000, 0.000, 22:06:59.060
119, -398.03, -499.12, -30.18, -890.68, 0.000, 0.000, 0.000, 22:06:59.075
120, 455.53, 448.07, 23.67, -844.02, 0.000, 0.000, 0.000, 22:06:59.075
121, 314.40, 234.43, 28.09, -805.87, 0.000, 0.000, 0.000, 22:06:59.090
122, -453.61, -557.01, -41.69, -874.32, 0.000, 0.000, 0.000, 22:06:59.090
123, 163.84, 127.71, -9.78, -866.03, 0.000, 0.000, 0.000, 22:06:59.090
124, 558.33, 517.69, 39.93, -811.06, 0.000, 0.000, 0.000, 22:06:59.090
125, -317.40, -428.05, -34.10, -866.55, 0.000, 0.000, 0.000, 22:06:59.105
126, -189.31, -245.68, -40.82, -891.19, 0.000, 0.000, 0.000, 22:06:59.105
127, 617.53, 605.19, 36.97, -828.48, 0.000, 0.000, 0.000, 22:06:59.120
128, -8.96, -135.08, -4.60, -836.32, 0.000, 0.000, 0.000, 22:06:59.120
129, -397.55, -494.31, -29.00, -885.73, 0.000, 0.000, 0.000, 22:06:59.121
130, 466.04, 444.89, 19.68, -849.76, 0.000, 0.000, 0.000, 22:06:59.121
131, 296.55, 213.14, 6.09, -836.49, 0.000, 0.000, 0.000, 22:06:59.135
132, -456.36, -574.40, -42.23, -880.89, 0.000, 0.000, 0.000, 22:06:59.135
133, 165.59, 125.19, -6.78, -863.63, 0.000, 0.000, 0.000, 22:06:59.150
134, 560.10, 511.71, 27.85, -823.65, 0.000, 0.000, 0.000, 22:06:59.150
135, -305.42, -435.18, -31.41, -880.28, 0.000, 0.000, 0.000, 22:06:59.150
136, -149.77, -224.24, -33.69, -878.93, 0.000, 0.000, 0.000, 22:06:59.150
137, 640.33, 610.26, 29.78, -828.91, 0.000, 0.000, 0.000, 22:06:59.164
138, -8.86, -127.40, -16.72, -858.28, 0.000, 0.000, 0.000, 22:06:59.165
139, -402.77, -494.75, -43.08, -893.63, 0.000, 0.000, 0.000, 22:06:59.179
140, 474.51, 464.13, 30.18, -840.97, 0.000, 0.000, 0.000, 22:06:59.179
141, 292.72, 216.78, 20.62, -834.32, 0.000, 0.000, 0.000, 22:06:59.180
142, -458.73, -566.23, -44.29, -879.07, 0.000, 0.000, 0.000, 22:06:59.180
143, 172.17, 129.00, 10.64, -844.78, 0.000, 0.000, 0.000, 22:06:59.194
144, 571.87, 525.72, 51.56, -803.88, 0.000, 0.000, 0.000, 22:06:59.194
145, -303.94, -430.66, 3.06, -833.54, 0.000, 0.000, 0.000, 22:06:59.209
146, -186.96, -257.96, 7.36, -837.71, 0.000, 0.000, 0.000, 22:06:59.210
147, 625.85, 611.09, 99.26, -758.20, 0.000, 0.000, 0.000, 22:06:59.210
148, -16.13, -138.43, 94.34, -754.91, 0.000, 0.000, 0.000, 22:06:59.210
149, -397.63, -494.76, 79.18, -764.85, 0.000, 0.000, 0.000, 22:06:59.225
150, 455.54, 441.60, 161.48, -682.69, 0.000, 0.000, 0.000, 22:06:59.225
151, 318.24, 232.84, 193.62, -650.88, 0.000, 0.000, 0.000, 22:06:59.240
152, -459.19, -565.95, 165.62, -684.32, 0.000, 0.000, 0.000, 22:06:59.240
153, 162.62, 133.30, 209.25, -651.40, 0.000, 0.000, 0.000, 22:06:59.240
154, 566.74, 531.67, 256.56, -602.11, 0.000, 0.000, 0.000, 22:06:59.240
155, -298.33, -429.20, 199.25, -653.56, 0.000, 0.000, 0.000, 22:06:59.255
156, -150.48, -227.24, 188.87, -668.73, 0.000, 0.000, 0.000, 22:06:59.255
157, 629.18, 607.04, 224.55, -622.55, 0.000, 0.000, 0.000, 22:06:59.270
158, -9.98, -124.20, 184.40, -647.63, 0.000, 0.000, 0.000, 22:06:59.270
159, -406.67, -491.84, 124.11, -728.29, 0.000, 0.000, 0.000, 22:06:59.270
160, 496.47, 470.83, 159.25, -698.23, 0.000, 0.000, 0.000, 22:06:59.270
161, 333.33, 246.59, 141.08, -710.18, 0.000, 0.000, 0.000, 22:06:59.284
162, -432.14, -555.52, 61.22, -790.22, 0.000, 0.000, 0.000, 22:06:59.285
163, 164.08, 114.89, 64.65, -802.09, 0.000, 0.000, 0.000, 22:06:59.299
164, 543.84, 512.31, 85.36, -772.38, 0.000, 0.000, 0.000, 22:06:59.300
165, -327.87, -438.06, -7.92, -855.54, 0.000, 0.000, 0.000, 22:06:59.300
166, -190.31, -251.21, -24.43, -889.49, 0.000, 0.000, 0.000, 22:06:59.300
167, 609.05, 595.68, 18.42, -840.50, 0.000, 0.000, 0.000, 22:06:59.314
168, -26.77, -147.74, -40.05, -882.95, 0.000, 0.000, 0.000, 22:06:59.314
169, -383.00, -488.27, -83.74, -929.04, 0.000, 0.000, 0.000, 22:06:59.330
170, 463.32, 445.84, -35.54, -887.72, 0.000, 0.000, 0.000, 22:06:59.330
171, 331.36, 245.29, -28.57, -881.81, 0.000, 0.000, 0.000, 22:06:59.330
172, -433.92, -556.62, -103.11, -948.10, 0.000, 0.000, 0.000, 22:06:59.331
173, 167.39, 129.70, -70.60, -941.10, 0.000, 0.000, 0.000, 22:06:59.345
174, 569.31, 519.09, -27.05, -883.37, 0.000, 0.000, 0.000, 22:06:59.345
175, -316.54, -434.79, -93.04, -941.76, 0.000, 0.000, 0.000, 22:06:59.360
176, -188.87, -247.91, -99.41, -962.48, 0.000, 0.000, 0.000, 22:06:59.360
177, 620.30, 614.09, -32.64, -897.62, 0.000, 0.000, 0.000, 22:06:59.361
178, -12.48, -125.15, -82.84, -930.18, 0.000, 0.000, 0.000, 22:06:59.361
179, -421.67, -515.57, -115.24, -961.94, 0.000, 0.000, 0.000, 22:06:59.375
180, 447.74, 433.29, -53.68, -921.17, 0.000, 0.000, 0.000, 22:06:59.375
181, 365.34, 266.11, -22.49, -881.31, 0.000, 0.000, 0.000, 22:06:59.389
182, -442.99, -553.40, -106.64, -950.17, 0.000, 0.000, 0.000, 22:06:59.389
183, 170.15, 128.84, -64.48, -930.37, 0.000, 0.000, 0.000, 22:06:59.390
184, 569.77, 527.60, -34.14, -898.83, 0.000, 0.000, 0.000, 22:06:59.390
185, -298.82, -422.64, -87.32, -926.23, 0.000, 0.000, 0.000, 22:06:59.405
186, -180.88, -256.46, -104.82, -953.68, 0.000, 0.000, 0.000, 22:06:59.405
187, 627.37, 601.62, -26.98, -885.86, 0.000, 0.000, 0.000, 22:06:59.420
188, -22.20, -114.98, -63.56, -906.94, 0.000, 0.000, 0.000, 22:06:59.421
189, -421.48, -521.06, -115.12, -956.70, 0.000, 0.000, 0.000, 22:06:59.421
190, 469.21, 449.95, -31.32, -896.36, 0.000, 0.000, 0.000, 22:06:59.421
191, 304.26, 226.34, -51.90, -905.41, 0.000, 0.000, 0.000, 22:06:59.441
192, -454.48, -574.03, -114.78, -954.57, 0.000, 0.000, 0.000, 22:06:59.441
193, 131.94, 111.19, -75.12, -927.93, 0.000, 0.000, 0.000, 22:06:59.450
194, 569.12, 519.83, -18.66, -881.19, 0.000, 0.000, 0.000, 22:06:59.450
195, -280.99, -416.34, -68.69, -914.01, 0.000, 0.000, 0.000, 22:06:59.451
196, -182.97, -245.34, -86.40, -936.70, 0.000, 0.000, 0.000, 22:06:59.451
197, 616.89, 601.57, -26.16, -879.33, 0.000, 0.000, 0.000, 22:06:59.464
198, -20.80, -131.64, -59.82, -889.28, 0.000, 0.000, 0.000, 22:06:59.465
199, -399.69, -493.59, -87.46, -926.53, 0.000, 0.000, 0.000, 22:06:59.480
200, 485.47, 454.28, -25.59, -871.27, 0.000, 0.000, 0.000, 22:06:59.480
0, 332.77, 249.48, -10.38, -857.56, 0.000, 0.000, 0.000, 22:06:59.480
1, -478.35, -583.63, -82.76, -925.84, 0.000, 0.000, 0.000, 22:06:59.495
2, 158.35, 117.57, -46.32, -897.13, 0.000, 0.000, 0.000, 22:06:59.495
3, 559.24, 517.61, -4.47, -847.35, 0.000, 0.000, 0.000, 22:06:59.495
4, -299.44, -427.17, -43.91, -887.85, 0.000, 0.000, 0.000, 22:06:59.495
5, -181.01, -253.45, -55.05, -907.51, 0.000, 0.000, 0.000, 22:06:59.510
6, 604.77, 591.07, -2.38, -855.20, 0.000, 0.000, 0.000, 22:06:59.510
7, -18.58, -122.95, -24.91, -867.12, 0.000, 0.000, 0.000, 22:06:59.525
8, -385.84, -484.55, -50.19, -899.23, 0.000, 0.000, 0.000, 22:06:59.525
9, 466.43, 449.42, 7.38, -856.06, 0.000, 0.000, 0.000, 22:06:59.525
10, 351.46, 258.67, 7.67, -846.30, 0.000, 0.000, 0.000, 22:06:59.525
11, -447.30, -574.96, -58.80, -910.46, 0.000, 0.000, 0.000, 22:06:59.539
12, 148.66, 116.83, -17.21, -879.03, 0.000, 0.000, 0.000, 22:06:59.539
13, 553.16, 506.81, 22.91, -842.98, 0.000, 0.000, 0.000, 22:06:59.555
14, -313.18, -441.01, -34.43, -883.51, 0.000, 0.000, 0.000, 22:06:59.555
15, -190.68, -264.18, -30.22, -889.34, 0.000, 0.000, 0.000, 22:06:59.555
16, 630.06, 613.52, 31.49, -830.24, 0.000, 0.000, 0.000, 22:06:59.555
17, -11.17, -119.56, -10.91, -857.84, 0.000, 0.000, 0.000, 22:06:59.570
18, -415.53, -509.65, -54.32, -901.92, 0.000, 0.000, 0.000, 22:06:59.570
19, 430.33, 425.14, -1.24, -868.54, 0.000, 0.000, 0.000, 22:06:59.584
20, 316.53, 238.21, -2.32, -852.61, 0.000, 0.000, 0.000, 22:06:59.584
21, -448.63, -570.95, -60.14, -896.95, 0.000, 0.000, 0.000, 22:06:59.585
22, 158.64, 116.74, -24.19, -875.93, 0.000, 0.000, 0.000, 22:06:59.585
23, 566.66, 522.78, 14.02, -825.89, 0.000, 0.000, 0.000, 22:06:59.599
24, -279.45, -402.76, -25.32, -867.68, 0.000, 0.000, 0.000, 22:06:59.599
25, -188.52, -243.01, -31.76, -885.85, 0.000, 0.000, 0.000, 22:06:59.614
26, 609.85, 600.27, 32.75, -830.93, 0.000, 0.000, 0.000, 22:06:59.615
27, -2.27, -108.48, -5.14, -856.28, 0.000, 0.000, 0.000, 22:06:59.615
28, -385.57, -513.06, -40.88, -887.96, 0.000, 0.000, 0.000, 22:06:59.615
29, 451.23, 437.77, 8.14, -853.20, 0.000, 0.000, 0.000, 22:06:59.630
30, 312.49, 235.00, 18.65, -829.15, 0.000, 0.000, 0.000, 22:06:59.630
31, -455.82, -566.15, -37.28, -884.19, 0.000, 0.000, 0.000, 22:06:59.645
32, 157.85, 115.99, -4.84, -857.45, 0.000, 0.000, 0.000, 22:06:59.645
33, 590.15, 557.04, 43.98, -803.17, 0.000, 0.000, 0.000, 22:06:59.645
34, -282.45, -418.96, -24.03, -860.57, 0.000, 0.000, 0.000, 22:06:59.645
35, -169.30, -250.55, -29.91, -872.81, 0.000, 0.000, 0.000, 22:06:59.660
36, 644.31, 608.75, 36.81, -819.59, 0.000, 0.000, 0.000, 22:06:59.660
37, 13.93, -113.96, 2.59, -844.38, 0.000, 0.000, 0.000, 22:06:59.675
38, -418.64, -522.13, -32.86, -882.89, 0.000, 0.000, 0.000, 22:06:59.675
39, 451.89, 430.76, 31.18, -831.77, 0.000, 0.000, 0.000, 22:06:59.675
40, 313.03, 233.64, 15.99, -835.18, 0.000, 0.000, 0.000, 22:06:59.675
41, -449.28, -568.99, -30.79, -882.15, 0.000, 0.000, 0.000, 22:06:59.689
42, 158.56, 109.00, -4.03, -850.65, 0.000, 0.000, 0.000, 22:06:59.689
43, 581.35, 534.15, 25.28, -819.46, 0.000, 0.000, 0.000, 22:06:59.704
44, -293.94, -422.15, -24.63, -865.06, 0.000, 0.000, 0.000, 22:06:59.705
45, -192.30, -252.97, -27.52, -876.80, 0.000, 0.000, 0.000, 22:06:59.705
46, 603.63, 592.12, 18.11, -827.42, 0.000, 0.000, 0.000, 22:06:59.705
47, -4.44, -112.49, -12.08, -861.20, 0.000, 0.000, 0.000, 22:06:59.726
48, -405.02, -510.53, -43.85, -901.67, 0.000, 0.000, 0.000, 22:06:59.726
49, 465.34, 443.60, 9.13, -839.66, 0.000, 0.000, 0.000, 22:06:59.735
50, 332.31, 243.55, 10.75, -827.94, 0.000, 0.000, 0.000, 22:06:59.735
51, -454.47, -565.07, -49.66, -886.51, 0.000, 0.000, 0.000, 22:06:59.735
52, 152.16, 117.33, -1.22, -857.58, 0.000, 0.000, 0.000, 22:06:59.735
53, 572.04, 534.26, 27.79, -826.90, 0.000, 0.000, 0.000, 22:06:59.750
54, -299.59, -415.56, -35.22, -877.48, 0.000, 0.000, 0.000, 22:06:59.751
55, -188.86, -258.84, -31.75, -879.45, 0.000, 0.000, 0.000, 22:06:59.765
56, 625.49, 609.03, 35.89, -814.37, 0.000, 0.000, 0.000, 22:06:59.765
57, 6.31, -114.84, -1.67, -841.50, 0.000, 0.000, 0.000, 22:06:59.765
58, -432.71, -531.53, -59.75, -899.00, 0.000, 0.000, 0.000, 22:06:59.765
59, 450.98, 426.14, 9.81, -840.91, 0.000, 0.000, 0.000, 22:06:59.780
60, 340.52, 257.27, 27.52, -818.47, 0.000, 0.000, 0.000, 22:06:59.780
61, -462.64, -568.84, -37.45, -883.52, 0.000, 0.000, 0.000, 22:06:59.794
62, 151.92, 96.83, -1.27, -860.26, 0.000, 0.000, 0.000, 22:06:59.794
63, 567.00, 526.42, 24.42, -824.69, 0.000, 0.000, 0.000, 22:06:59.795
64, -308.06, -427.90, -31.10, -865.27, 0.000, 0.000, 0.000, 22:06:59.795
65, -202.94, -263.09, -24.52, -878.34, 0.000, 0.000, 0.000, 22:06:59.809
66, 623.97, 597.83, 31.53, -820.81, 0.000, 0.000, 0.000, 22:06:59.809
67, -8.66, -114.32, -1.62, -845.16, 0.000, 0.000, 0.000, 22:06:59.824
68, -412.50, -515.81, -40.62, -886.58, 0.000, 0.000, 0.000, 22:06:59.824
69, 449.38, 431.11, 26.25, -840.02, 0.000, 0.000, 0.000, 22:06:59.825
70, 349.67, 259.64, 31.48, -826.95, 0.000, 0.000, 0.000, 22:06:59.825
71, -443.34, -566.89, -32.87, -877.97, 0.000, 0.000, 0.000, 22:06:59.840
72, 125.43, 94.01, 5.88, -858.54, 0.000, 0.000, 0.000, 22:06:59.840
73, 569.68, 526.05, 57.15, -813.20, 0.000, 0.000, 0.000, 22:06:59.855
74, -288.93, -415.34, 20.49, -852.89, 0.000, 0.000, 0.000, 22:06:59.855
75, -212.03, -274.50, -2.71, -878.27, 0.000, 0.000, 0.000, 22:06:59.855
76, 609.24, 596.59, 48.51, -828.50, 0.000, 0.000, 0.000, 22:06:59.855
77, 20.94, -95.83, 24.49, -840.87, 0.000, 0.000, 0.000, 22:06:59.870
78, -419.58, -514.40, -36.51, -895.07, 0.000, 0.000, 0.000, 22:06:59.870
79, 457.84, 440.16, 21.86, -855.17, 0.000, 0.000, 0.000, 22:06:59.885
80, 347.14, 264.03, 21.65, -839.34, 0.000, 0.000, 0.000, 22:06:59.885
81, -425.57, -550.65, -27.80, -873.09, 0.000, 0.000, 0.000, 22:06:59.885
82, 146.54, 123.87, -1.82, -862.98, 0.000, 0.000, 0.000, 22:06:59.885
83, 568.60, 522.35, 33.88, -820.81, 0.000, 0.000, 0.000, 22:06:59.900
84, -305.87, -421.59, -20.39, -866.17, 0.000, 0.000, 0.000, 22:06:59.900
85, -197.66, -264.52, -15.11, -872.96, 0.000, 0.000, 0.000, 22:06:59.915
86, 625.23, 601.35, 44.82, -826.54, 0.000, 0.000, 0.000, 22:06:59.915
87, 20.35, -92.04, 11.89, -832.22, 0.000, 0.000, 0.000, 22:06:59.916
88, -419.25, -511.09, -34.55, -888.18, 0.000, 0.000, 0.000, 22:06:59.916
89, 446.10, 435.32, 18.44, -842.72, 0.000, 0.000, 0.000, 22:06:59.930
90, 340.82, 260.58, 23.87, -832.79, 0.000, 0.000, 0.000, 22:06:59.930
91, -431.62, -553.52, -23.07, -868.50, 0.000, 0.000, 0.000, 22:06:59.945
92, 143.94, 107.19, 9.91, -850.47, 0.000, 0.000, 0.000, 22:06:59.945
93, 574.70, 540.35, 49.62, -806.53, 0.000, 0.000, 0.000, 22:06:59.959
94, -272.85, -398.16, -5.89, -855.33, 0.000, 0.000, 0.000, 22:06:59.959
95, -184.42, -258.09, -19.22, -861.26, 0.000, 0.000, 0.000, 22:06:59.960
96, 620.14, 610.68, 43.14, -810.54, 0.000, 0.000, 0.000, 22:06:59.960
97, 16.30, -99.39, 5.15, -832.07, 0.000, 0.000, 0.000, 22:06:59.975
98, -421.91, -520.65, -50.29, -892.97, 0.000, 0.000, 0.000, 22:06:59.975
99, 461.61, 434.01, 19.82, -833.17, 0.000, 0.000, 0.000, 22:06:59.975
100, 356.88, 275.88, 30.54, -807.55, 0.000, 0.000, 0.000, 22:06:59.975
101, -441.61, -563.12, -41.13, -876.16, 0.000, 0.000, 0.000, 22:06:59.989
102, 111.34, 79.88, -19.30, -867.19, 0.000, 0.000, 0.000, 22:06:59.989
103, 578.73, 538.92, 23.19, -815.65, 0.000, 0.000, 0.000, 22:07:00.005
104, -265.62, -395.57, -22.53, -842.73, 0.000, 0.000, 0.000, 22:07:00.005
105, -196.85, -267.54, -24.87, -877.25, 0.000, 0.000, 0.000, 22:07:00.005
106, 601.89, 593.21, 19.27, -835.67, 0.000, 0.000, 0.000, 22:07:00.005
107, -0.54, -109.11, -18.33, -848.37, 0.000, 0.000, 0.000, 22:07:00.020
108, -413.39, -518.14, -59.84, -882.98, 0.000, 0.000, 0.000, 22:07:00.020
109, 453.62, 434.37, 19.42, -831.71, 0.000, 0.000, 0.000, 22:07:00.036
110, 354.58, 271.03, 31.76, -810.12, 0.000, 0.000, 0.000, 22:07:00.036
111, -445.12, -561.45, -39.36, -872.25, 0.000, 0.000, 0.000, 22:07:00.036
112, 136.02, 102.07, 3.76, -844.51, 0.000, 0.000, 0.000, 22:07:00.036
113, 586.04, 552.66, 43.59, -799.46, 0.000, 0.000, 0.000, 22:07:00.049
114, -286.13, -413.69, -30.13, -866.11, 0.000, 0.000, 0.000, 22:07:00.049
115, -222.33, -285.71, -49.13, -891.75, 0.000, 0.000, 0.000, 22:07:00.065
116, 621.14, 607.80, 34.13, -815.77, 0.000, 0.000, 0.000, 22:07:00.065
117, 11.49, -102.11, -9.71, -830.84, 0.000, 0.000, 0.000, 22:07:00.065
118, -410.82, -501.70, -38.55, -879.06, 0.000, 0.000, 0.000, 22:07:00.065
119, 451.61, 429.04, 27.61, -832.05, 0.000, 0.000, 0.000, 22:07:00.080
120, 341.88, 264.70, 21.63, -827.15, 0.000, 0.000, 0.000, 22:07:00.080
121, -447.55, -566.23, -37.60, -876.07, 0.000, 0.000, 0.000, 22:07:00.095
122, 124.22, 88.13, -13.33, -863.10, 0.000, 0.000, 0.000, 22:07:00.095
123, 581.78, 539.83, 26.53, -813.04, 0.000, 0.000, 0.000, 22:07:00.095
124, -287.33, -408.81, -24.30, -874.77, 0.000, 0.000, 0.000, 22:07:00.095
125, -211.35, -275.54, -29.40, -877.29, 0.000, 0.000, 0.000, 22:07:00.110
126, 620.89, 603.08, 38.08, -813.51, 0.000, 0.000, 0.000, 22:07:00.110
127, 13.60, -103.79, -16.09, -852.32, 0.000, 0.000, 0.000, 22:07:00.125
128, -430.83, -520.81, -46.80, -893.08, 0.000, 0.000, 0.000, 22:07:00.125
129, 443.10, 436.84, 23.06, -840.98, 0.000, 0.000, 0.000, 22:07:00.125
130, 355.53, 268.11, 24.42, -824.50, 0.000, 0.000, 0.000, 22:07:00.125
131, -441.22, -572.66, -55.49, -884.44, 0.000, 0.000, 0.000, 22:07:00.146
132, 124.63, 87.91, -4.80, -869.15, 0.000, 0.000, 0.000, 22:07:00.146
133, 574.81, 533.35, 28.27, -825.76, 0.000, 0.000, 0.000, 22:07:00.169
134, -281.38, -410.67, -24.02, -868.39, 0.000, 0.000, 0.000, 22:07:00.170
135, -192.94, -279.86, -31.43, -879.97, 0.000, 0.000, 0.000, 22:07:00.170
136, 639.67, 613.47, 47.30, -812.71, 0.000, 0.000, 0.000, 22:07:00.170
137, -4.23, -107.31, -13.89, -855.41, 0.000, 0.000, 0.000, 22:07:00.171
138, -411.70, -507.40, -30.18, -889.99, 0.000, 0.000, 0.000, 22:07:00.171
139, 441.06, 419.21, 19.04, -840.52, 0.000, 0.000, 0.000, 22:07:00.184
140, 348.31, 270.07, 23.64, -822.56, 0.000, 0.000, 0.000, 22:07:00.185
141, -431.38, -552.96, -35.69, -873.78, 0.000, 0.000, 0.000, 22:07:00.185
142, 121.02, 82.79, -3.93, -860.26, 0.000, 0.000, 0.000, 22:07:00.185
143, 569.10, 539.41, 42.03, -808.40, 0.000, 0.000, 0.000, 22:07:00.200
144, -279.43, -411.52, -12.96, -851.53, 0.000, 0.000, 0.000, 22:07:00.200
145, -231.10, -300.42, -30.58, -875.62, 0.000, 0.000, 0.000, 22:07:00.214
146, 623.62, 602.55, 44.87, -803.84, 0.000, 0.000, 0.000, 22:07:00.214
147, 13.84, -93.88, 36.46, -805.62, 0.000, 0.000, 0.000, 22:07:00.215
148, -411.01, -506.67, 12.82, -825.60, 0.000, 0.000, 0.000, 22:07:00.215
149, 435.64, 415.97, 81.97, -768.23, 0.000, 0.000, 0.000, 22:07:00.229
150, 337.65, 260.91, 108.41, -725.90, 0.000, 0.000, 0.000, 22:07:00.229
151, -448.13, -555.72, 92.85, -731.53, 0.000, 0.000, 0.000, 22:07:00.244
152, 144.41, 98.48, 166.38, -685.59, 0.000, 0.000, 0.000, 22:07:00.244
153, 597.95, 554.59, 241.40, -609.18, 0.000, 0.000, 0.000, 22:07:00.245
154, -280.46, -390.98, 185.17, -656.00, 0.000, 0.000, 0.000, 22:07:00.245
155, -194.07, -272.84, 186.14, -645.99, 0.000, 0.000, 0.000, 22:07:00.259
156, 645.05, 631.39, 253.04, -589.57, 0.000, 0.000, 0.000, 22:07:00.259
157, 40.02, -68.74, 199.75, -637.98, 0.000, 0.000, 0.000, 22:07:00.275
158, -405.54, -499.89, 167.74, -670.20, 0.000, 0.000, 0.000, 22:07:00.275
159, 440.75, 421.08, 198.23, -651.98, 0.000, 0.000, 0.000, 22:07:00.276
160, 372.28, 281.48, 200.31, -652.92, 0.000, 0.000, 0.000, 22:07:00.276
161, -437.48, -550.06, 117.88, -710.17, 0.000, 0.000, 0.000, 22:07:00.289
162, 114.29, 74.43, 111.68, -749.51, 0.000, 0.000, 0.000, 22:07:00.289
163, 614.22, 566.81, 151.83, -695.48, 0.000, 0.000, 0.000, 22:07:00.306
164, -275.75, -406.84, 61.09, -781.08, 0.000, 0.000, 0.000, 22:07:00.306
165, -214.28, -288.23, 22.24, -833.12, 0.000, 0.000, 0.000, 22:07:00.306
166, 601.17, 593.85, 62.26, -807.74, 0.000, 0.000, 0.000, 22:07:00.307
167, 17.40, -94.69, 13.34, -827.61, 0.000, 0.000, 0.000, 22:07:00.320
168, -426.72, -528.40, -52.66, -897.37, 0.000, 0.000, 0.000, 22:07:00.320
169, 437.84, 410.76, -8.30, -867.00, 0.000, 0.000, 0.000, 22:07:00.334
170, 358.53, 275.71, -17.44, -866.94, 0.000, 0.000, 0.000, 22:07:00.334
171, -457.05, -568.63, -90.51, -931.13, 0.000, 0.000, 0.000, 22:07:00.335
172, 101.27, 60.87, -69.69, -935.44, 0.000, 0.000, 0.000, 22:07:00.335
173, 590.89, 544.15, -16.10, -882.08, 0.000, 0.000, 0.000, 22:07:00.349
174, -272.23, -401.01, -89.00, -927.96, 0.000, 0.000, 0.000, 22:07:00.349
175, -222.99, -293.61, -113.35, -967.32, 0.000, 0.000, 0.000, 22:07:00.365
176, 596.66, 589.70, -49.13, -917.34, 0.000, 0.000, 0.000, 22:07:00.365
177, 11.43, -89.34, -75.50, -930.53, 0.000, 0.000, 0.000, 22:07:00.365
178, -438.96, -534.64, -142.56, -975.91, 0.000, 0.000, 0.000, 22:07:00.365
179, 428.10, 413.14, -59.85, -917.73, 0.000, 0.000, 0.000, 22:07:00.379
180, 359.04, 279.51, -52.09, -907.15, 0.000, 0.000, 0.000, 22:07:00.379
181, -439.91, -567.32, -123.88, -967.14, 0.000, 0.000, 0.000, 22:07:00.395
182, 99.82, 59.68, -100.50, -961.96, 0.000, 0.000, 0.000, 22:07:00.395
183, 570.06, 536.21, -51.39, -917.20, 0.000, 0.000, 0.000, 22:07:00.395
184, -263.31, -389.61, -88.31, -940.97, 0.000, 0.000, 0.000, 22:07:00.395
185, -213.90, -289.90, -100.22, -965.57, 0.000, 0.000, 0.000, 22:07:00.410
186, 630.15, 621.69, -31.07, -892.39, 0.000, 0.000, 0.000, 22:07:00.410
187, 31.87, -74.64, -70.60, -920.68, 0.000, 0.000, 0.000, 22:07:00.428
188, -429.12, -530.78, -124.42, -968.04, 0.000, 0.000, 0.000, 22:07:00.428
189, 438.18, 409.64, -53.73, -920.61, 0.000, 0.000, 0.000, 22:07:00.428
190, 342.63, 270.56, -53.10, -901.73, 0.000, 0.000, 0.000, 22:07:00.428
191, -455.68, -578.21, -103.47, -953.68, 0.000, 0.000, 0.000, 22:07:00.440
192, 118.34, 66.17, -79.56, -938.07, 0.000, 0.000, 0.000, 22:07:00.440
193, 545.32, 520.95, -59.62, -908.15, 0.000, 0.000, 0.000, 22:07:00.456
194, -274.31, -389.00, -72.68, -907.45, 0.000, 0.000, 0.000, 22:07:00.456
195, -210.15, -282.17, -82.45, -934.49, 0.000, 0.000, 0.000, 22:07:00.457
196, 617.23, 598.70, -2.94, -875.38, 0.000, 0.000, 0.000, 22:07:00.457
197, 46.54, -74.63, -35.78, -885.52, 0.000, 0.000, 0.000, 22:07:00.470
198, -416.44, -516.91, -83.13, -923.01, 0.000, 0.000, 0.000, 22:07:00.470
199, 419.39, 399.04, -31.35, -890.46, 0.000, 0.000, 0.000, 22:07:00.485
200, 365.28, 291.68, -15.41, -863.88, 0.000, 0.000, 0.000, 22:07:00.485
0, -443.56, -565.96, -88.29, -933.98, 0.000, 0.000, 0.000, 22:07:00.485
1, 101.71, 75.53, -40.75, -899.60, 0.000, 0.000, 0.000, 22:07:00.499
2, 606.08, 563.43, 23.92, -830.43, 0.000, 0.000, 0.000, 22:07:00.499
3, -273.80, -398.01, -56.16, -899.95, 0.000, 0.000, 0.000, 22:07:00.500
4, -210.20, -291.33, -60.89, -916.05, 0.000, 0.000, 0.000, 22:07:00.501
5, 605.84, 605.60, 20.94, -842.55, 0.000, 0.000, 0.000, 22:07:00.521
6, 35.79, -77.99, -15.14, -865.22, 0.000, 0.000, 0.000, 22:07:00.521
7, -412.76, -510.53, -47.94, -889.11, 0.000, 0.000, 0.000, 22:07:00.529
8, 401.59, 384.93, -14.02, -877.75, 0.000, 0.000, 0.000, 22:07:00.529
9, 371.76, 282.01, 1.11, -848.67, 0.000, 0.000, 0.000, 22:07:00.530
10, -457.15, -575.02, -63.34, -901.17, 0.000, 0.000, 0.000, 22:07:00.530
11, 121.16, 72.86, -18.45, -874.92, 0.000, 0.000, 0.000, 22:07:00.544
12, 580.29, 547.94, 11.86, -845.65, 0.000, 0.000, 0.000, 22:07:00.544
13, -269.31, -393.39, -34.29, -877.63, 0.000, 0.000, 0.000, 22:07:00.559
14, -223.80, -303.24, -53.84, -895.52, 0.000, 0.000, 0.000, 22:07:00.559
15, 601.27, 584.35, 2.08, -848.26, 0.000, 0.000, 0.000, 22:07:00.561
16, 48.58, -54.98, -7.15, -844.99, 0.000, 0.000, 0.000, 22:07:00.561
17, -446.76, -537.66, -57.35, -890.58, 0.000, 0.000, 0.000, 22:07:00.574
18, 433.10, 402.58, 6.96, -839.62, 0.000, 0.000, 0.000, 22:07:00.574
19, 380.91, 291.16, 23.01, -822.15, 0.000, 0.000, 0.000, 22:07:00.590
20, -419.42, -557.78, -43.23, -874.68, 0.000, 0.000, 0.000, 22:07:00.590
21, 117.18, 71.79, -10.37, -851.75, 0.000, 0.000, 0.000, 22:07:00.590
22, 572.83, 545.46, 19.17, -821.87, 0.000, 0.000, 0.000, 22:07:00.590
23, -272.05, -392.30, -20.08, -859.99, 0.000, 0.000, 0.000, 22:07:00.606
24, -224.98, -292.23, -27.21, -881.24, 0.000, 0.000, 0.000, 22:07:00.606
25, 621.09, 612.89, 38.98, -815.37, 0.000, 0.000, 0.000, 22:07:00.620
26, 45.06, -60.83, 18.64, -820.13, 0.000, 0.000, 0.000, 22:07:00.620
27, -428.18, -522.16, -45.54, -885.01, 0.000, 0.000, 0.000, 22:07:00.621
28, 433.62, 419.32, 26.07, -817.09, 0.000, 0.000, 0.000, 22:07:00.622
29, 371.11, 288.08, 7.81, -826.12, 0.000, 0.000, 0.000, 22:07:00.634
30, -441.11, -561.20, -33.81, -866.19, 0.000, 0.000, 0.000, 22:07:00.634
31, 101.42, 64.06, -8.43, -853.13, 0.000, 0.000, 0.000, 22:07:00.649
32, 594.68, 560.43, 50.89, -803.76, 0.000, 0.000, 0.000, 22:07:00.649
33, -269.32, -401.46, -29.29, -862.98, 0.000, 0.000, 0.000, 22:07:00.650
34, -220.99, -302.70, -36.74, -874.63, 0.000, 0.000, 0.000, 22:07:00.650
35, 615.43, 607.64, 51.79, -799.27, 0.000, 0.000, 0.000, 22:07:00.664
36, 51.23, -65.70, 12.69, -826.54, 0.000, 0.000, 0.000, 22:07:00.664
37, -422.97, -524.62, -44.91, -883.88, 0.000, 0.000, 0.000, 22:07:00.679
38, 430.31, 412.24, 24.37, -829.80, 0.000, 0.000, 0.000, 22:07:00.679
39, 378.80, 310.00, 18.37, -810.90, 0.000, 0.000, 0.000, 22:07:00.680
40, -453.09, -573.12, -50.30, -880.07, 0.000, 0.000, 0.000, 22:07:00.680
41, 87.38, 55.54, -14.33, -864.58, 0.000, 0.000, 0.000, 22:07:00.694
42, 590.17, 542.54, 10.36, -831.02, 0.000, 0.000, 0.000, 22:07:00.694
43, -256.51, -382.86, -19.71, -855.33, 0.000, 0.000, 0.000, 22:07:00.710
44, -214.21, -299.52, -34.78, -873.29, 0.000, 0.000, 0.000, 22:07:00.710
45, 598.20, 590.36, 22.17, -831.18, 0.000, 0.000, 0.000, 22:07:00.710
46, 28.63, -84.68, -12.28, -848.96, 0.000, 0.000, 0.000, 22:07:00.710
47, -452.24, -543.07, -54.74, -882.51, 0.000, 0.000, 0.000, 22:07:00.725
48, 392.87, 381.56, -3.21, -849.15, 0.000, 0.000, 0.000, 22:07:00.725
49, 370.60, 289.21, 13.03, -829.25, 0.000, 0.000, 0.000, 22:07:00.739
50, -435.93, -558.91, -42.38, -883.71, 0.000, 0.000, 0.000, 22:07:00.739
51, 95.72, 56.01, -14.25, -858.12, 0.000, 0.000, 0.000, 22:07:00.740
52, 602.52, 557.13, 34.43, -818.64, 0.000, 0.000, 0.000, 22:07:00.740
53, -252.82, -379.75, -24.29, -856.19, 0.000, 0.000, 0.000, 22:07:00.755
54, -244.67, -306.19, -40.38, -889.87, 0.000, 0.000, 0.000, 22:07:00.755
55, 609.64, 597.53, 24.93, -832.81, 0.000, 0.000, 0.000, 22:07:00.771
56, 59.06, -56.71, -12.75, -845.10, 0.000, 0.000, 0.000, 22:07:00.771
57, -429.80, -538.86, -45.85, -888.71, 0.000, 0.000, 0.000, 22:07:00.772
58, 424.66, 416.76, 25.48, -831.22, 0.000, 0.000, 0.000, 22:07:00.772
59, 377.92, 296.53, 13.86, -825.92, 0.000, 0.000, 0.000, 22:07:00.785
60, -450.82, -565.14, -50.88, -879.17, 0.000, 0.000, 0.000, 22:07:00.785
61, 89.48, 59.88, -22.66, -875.07, 0.000, 0.000, 0.000, 22:07:00.800
62, 601.01, 565.95, 37.83, -816.06, 0.000, 0.000, 0.000, 22:07:00.800
63, -248.76, -371.92, -31.28, -867.36, 0.000, 0.000, 0.000, 22:07:00.800
64, -251.37, -321.26, -50.17, -889.08, 0.000, 0.000, 0.000, 22:07:00.800
65, 587.93, 579.18, 8.76, -839.47, 0.000, 0.000, 0.000, 22:07:00.814
66, 66.81, -59.83, -7.95, -846.68, 0.000, 0.000, 0.000, 22:07:00.815
67, -395.75, -510.17, -31.47, -870.20, 0.000, 0.000, 0.000, 22:07:00.829
68, 419.69, 389.33, 10.42, -835.30, 0.000, 0.000, 0.000, 22:07:00.830
69, 399.03, 318.23, 39.69, -805.63, 0.000, 0.000, 0.000, 22:07:00.830
70, -457.86, -560.76, -18.05, -865.35, 0.000, 0.000, 0.000, 22:07:00.830
71, 95.58, 50.26, 3.46, -857.96, 0.000, 0.000, 0.000, 22:07:00.844
72, 612.79, 562.69, 37.00, -810.47, 0.000, 0.000, 0.000, 22:07:00.845
73, -222.60, -371.19, -15.56, -854.92, 0.000, 0.000, 0.000, 22:07:00.860
74, -249.61, -318.37, -42.76, -891.86, 0.000, 0.000, 0.000, 22:07:00.860
75, 602.01, 602.63, 30.89, -829.49, 0.000, 0.000, 0.000, 22:07:00.860
76, 59.93, -43.17, 2.30, -833.18, 0.000, 0.000, 0.000, 22:07:00.860
77, -430.47, -536.21, -31.68, -876.04, 0.000, 0.000, 0.000, 22:07:00.875
78, 409.85, 380.50, 8.72, -852.66, 0.000, 0.000, 0.000, 22:07:00.875
79, 391.70, 312.17, 18.83, -827.64, 0.000, 0.000, 0.000, 22:07:00.890
80, -441.57, -560.79, -52.48, -887.67, 0.000, 0.000, 0.000, 22:07:00.892
81, 103.89, 59.32, -2.87, -861.07, 0.000, 0.000, 0.000, 22:07:00.892
82, 578.40, 546.72, 39.22, -819.06, 0.000, 0.000, 0.000, 22:07:00.892
83, -244.25, -376.28, -18.88, -859.66, 0.000, 0.000, 0.000, 22:07:00.905
84, -220.93, -295.75, -30.05, -876.29, 0.000, 0.000, 0.000, 22:07:00.905
85, 615.70, 592.83, 23.64, -835.55, 0.000, 0.000, 0.000, 22:07:00.919
86, 35.14, -67.50, -7.63, -860.69, 0.000, 0.000, 0.000, 22:07:00.920
87, -420.27, -520.60, -34.82, -882.53, 0.000, 0.000, 0.000, 22:07:00.921
88, 405.49, 371.47, -1.47, -858.56, 0.000, 0.000, 0.000, 22:07:00.921
89, 395.81, 304.11, 22.15, -821.58, 0.000, 0.000, 0.000, 22:07:00.934
90, -429.58, -561.52, -41.28, -881.97, 0.000, 0.000, 0.000, 22:07:00.934
91, 85.54, 28.80, -11.29, -863.06, 0.000, 0.000, 0.000, 22:07:00.949
92, 593.54, 557.36, 49.75, -811.61, 0.000, 0.000, 0.000, 22:07:00.949
93, -278.84, -377.36, -13.71, -863.03, 0.000, 0.000, 0.000, 22:07:00.950
94, -202.10, -327.24, -40.53, -895.51, 0.000, 0.000, 0.000, 22:07:00.950
95, 596.95, 599.08, 30.53, -822.71, 0.000, 0.000, 0.000, 22:07:00.964
96, 39.89, -58.35, -3.99, -850.90, 0.000, 0.000, 0.000, 22:07:00.965
97, -445.29, -544.96, -56.58, -898.26, 0.000, 0.000, 0.000, 22:07:00.980
98, 414.85, 389.49, 12.75, -851.27, 0.000, 0.000, 0.000, 22:07:00.980
99, 387.56, 306.33, 26.23, -823.82, 0.000, 0.000, 0.000, 22:07:00.987
100, -422.85, -545.76, -15.23, -864.31, 0.000, 0.000, 0.000, 22:07:00.988
101, 81.67, 43.65, -0.90, -852.07, 0.000, 0.000, 0.000, 22:07:00.994
102, 591.43, 561.88, 55.96, -799.92, 0.000, 0.000, 0.000, 22:07:00.995
103, -259.02, -384.11, -20.62, -853.35, 0.000, 0.000, 0.000, 22:07:01.009
104, -259.97, -330.27, -38.17, -891.35, 0.000, 0.000, 0.000, 22:07:01.009
105, 591.20, 587.47, 29.60, -820.40, 0.000, 0.000, 0.000, 22:07:01.010
106, 61.22, -45.83, 22.30, -825.98, 0.000, 0.000, 0.000, 22:07:01.010
107, -417.72, -524.83, -24.83, -868.65, 0.000, 0.000, 0.000, 22:07:01.025
108, 401.53, 389.75, 11.12, -847.27, 0.000, 0.000, 0.000, 22:07:01.025
109, 370.16, 302.44, 21.14, -827.83, 0.000, 0.000, 0.000, 22:07:01.039
110, -451.73, -569.15, -46.20, -879.87, 0.000, 0.000, 0.000, 22:07:01.039
111, 91.63, 41.00, -13.95, -865.88, 0.000, 0.000, 0.000, 22:07:01.040
112, 613.41, 573.71, 39.20, -817.72, 0.000, 0.000, 0.000, 22:07:01.040
113, -239.07, -369.02, -7.95, -852.54, 0.000, 0.000, 0.000, 22:07:01.054
114, -246.94, -333.00, -38.13, -886.87, 0.000, 0.000, 0.000, 22:07:01.054
115, 579.98, 579.06, 25.96, -831.86, 0.000, 0.000, 0.000, 22:07:01.071
116, 62.62, -52.66, 0.44, -845.71, 0.000, 0.000, 0.000, 22:07:01.071
117, -428.10, -530.72, -43.41, -896.14, 0.000, 0.000, 0.000, 22:07:01.071
118, 423.37, 396.11, 22.52, -848.11, 0.000, 0.000, 0.000, 22:07:01.071
119, 401.12, 319.50, 18.87, -832.66, 0.000, 0.000, 0.000, 22:07:01.084
120, -434.65, -555.73, -51.20, -902.80, 0.000, 0.000, 0.000, 22:07:01.084
121, 65.41, 34.38, -26.62, -883.41, 0.000, 0.000, 0.000, 22:07:01.100
122, 612.09, 566.67, 11.89, -832.05, 0.000, 0.000, 0.000, 22:07:01.100
123, -217.01, -360.04, -36.79, -877.65, 0.000, 0.000, 0.000, 22:07:01.100
124, -245.26, -308.66, -48.75, -908.86, 0.000, 0.000, 0.000, 22:07:01.100
125, 600.92, 594.46, 5.45, -855.43, 0.000, 0.000, 0.000, 22:07:01.114
126, 55.84, -57.84, -16.69, -872.58, 0.000, 0.000, 0.000, 22:07:01.114
127, -442.35, -542.94, -60.50, -894.33, 0.000, 0.000, 0.000, 22:07:01.129
128, 391.01, 383.59, -0.68, -863.51, 0.000, 0.000, 0.000, 22:07:01.129
129, 391.78, 313.51, 14.36, -841.58, 0.000, 0.000, 0.000, 22:07:01.130
130, -435.06, -554.68, -45.18, -893.12, 0.000, 0.000, 0.000, 22:07:01.130
131, 93.15, 47.25, 1.57, -869.74, 0.000, 0.000, 0.000, 22:07:01.144
132, 616.19, 578.74, 40.25, -824.73, 0.000, 0.000, 0.000, 22:07:01.144
133, -219.98, -346.63, -4.18, -853.93, 0.000, 0.000, 0.000, 22:07:01.160
134, -222.33, -306.16, -27.78, -875.28, 0.000, 0.000, 0.000, 22:07:01.160
135, 630.16, 614.52, 33.80, -825.75, 0.000, 0.000, 0.000, 22:07:01.160
136, 93.38, -34.22, 13.25, -838.25, 0.000, 0.000, 0.000, 22:07:01.160
137, -386.62, -506.54, -24.55, -868.19, 0.000, 0.000, 0.000, 22:07:01.175
138, 391.93, 393.32, -1.59, -861.02, 0.000, 0.000, 0.000, 22:07:01.175
139, 400.10, 332.00, 50.05, -812.69, 0.000, 0.000, 0.000, 22:07:01.190
140, -429.16, -561.98, -11.94, -867.43, 0.000, 0.000, 0.000, 22:07:01.190
141, 86.34, 58.78, 41.34, -825.83, 0.000, 0.000, 0.000, 22:07:01.191
142, 611.12, 591.69, 107.23, -774.41, 0.000, 0.000, 0.000, 22:07:01.191
143, -237.49, -352.54, 51.84, -821.63, 0.000, 0.000, 0.000, 22:07:01.205
144, -286.07, -344.70, 35.51, -853.49, 0.000, 0.000, 0.000, 22:07:01.205
145, 615.99, 600.80, 111.96, -783.49, 0.000, 0.000, 0.000, 22:07:01.219
146, 103.57, -14.50, 79.50, -790.60, 0.000, 0.000, 0.000, 22:07:01.219
147, -416.19, -507.43, 50.43, -828.95, 0.000, 0.000, 0.000, 22:07:01.220
148, 408.50, 396.21, 83.32, -800.97, 0.000, 0.000, 0.000, 22:07:01.220
149, 399.10, 336.71, 68.79, -795.88, 0.000, 0.000, 0.000, 22:07:01.235
150, -418.97, -537.34, 9.39, -862.12, 0.000, 0.000, 0.000, 22:07:01.235
151, 90.96, 43.79, 24.03, -848.86, 0.000, 0.000, 0.000, 22:07:01.249
152, 629.47, 584.22, 48.52, -819.87, 0.000, 0.000, 0.000, 22:07:01.249
153, -215.29, -347.62, -13.11, -867.33, 0.000, 0.000, 0.000, 22:07:01.250
154, -237.22, -304.28, -29.83, -880.65, 0.000, 0.000, 0.000, 22:07:01.250
155, 643.58, 605.59, 45.20, -814.15, 0.000, 0.000, 0.000, 22:07:01.265
156, 64.86, -43.74, -9.53, -861.51, 0.000, 0.000, 0.000, 22:07:01.265
157, -437.09, -537.46, -50.07, -902.49, 0.000, 0.000, 0.000, 22:07:01.280
158, 390.10, 362.11, -11.91, -865.63, 0.000, 0.000, 0.000, 22:07:01.280
159, 393.27, 314.79, 10.03, -843.13, 0.000, 0.000, 0.000, 22:07:01.280
160, -421.14, -541.38, -68.17, -894.16, 0.000, 0.000, 0.000, 22:07:01.280
161, 69.91, 20.78, -35.92, -894.73, 0.000, 0.000, 0.000, 22:07:01.294
162, 612.78, 576.52, 26.30, -835.47, 0.000, 0.000, 0.000, 22:07:01.294
163, -225.99, -361.74, -36.18, -884.13, 0.000, 0.000, 0.000, 22:07:01.311
164, -267.63, -349.19, -77.03, -910.35, 0.000, 0.000, 0.000, 22:07:01.311
165, 600.22, 590.38, 6.06, -846.89, 0.000, 0.000, 0.000, 22:07:01.311
166, 75.37, -34.96, -35.65, -876.44, 0.000, 0.000, 0.000, 22:07:01.311
167, -442.69, -539.32, -89.80, -918.98, 0.000, 0.000, 0.000, 22:07:01.325
168, 387.05, 365.14, -16.61, -878.43, 0.000, 0.000, 0.000, 22:07:01.325
169, 387.66, 312.84, -16.31, -853.09, 0.000, 0.000, 0.000, 22:07:01.340
170, -437.75, -552.02, -76.22, -900.27, 0.000, 0.000, 0.000, 22:07:01.340
171, 72.34, 15.99, -28.05, -894.67, 0.000, 0.000, 0.000, 22:07:01.340
172, 616.41, 569.67, 15.65, -832.51, 0.000, 0.000, 0.000, 22:07:01.340
173, -259.31, -376.70, -56.76, -880.34, 0.000, 0.000, 0.000, 22:07:01.355
174, -250.75, -334.51, -48.17, -893.76, 0.000, 0.000, 0.000, 22:07:01.355
175, 586.87, 579.26, 25.17, -823.02, 0.000, 0.000, 0.000, 22:07:01.370
176, 82.09, -28.44, -19.52, -852.37, 0.000, 0.000, 0.000, 22:07:01.370
177, -453.63, -549.58, -65.75, -906.79, 0.000, 0.000, 0.000, 22:07:01.370
178, 413.35, 378.43, 4.57, -856.55, 0.000, 0.000, 0.000, 22:07:01.371
179, 408.20, 330.48, 1.83, -823.43, 0.000, 0.000, 0.000, 22:07:01.385
180, -443.44, -570.04, -62.25, -897.14, 0.000, 0.000, 0.000, 22:07:01.385
181, 65.23, 12.29, -24.65, -865.96, 0.000, 0.000, 0.000, 22:07:01.399
182, 602.43, 569.04, 39.20, -812.42, 0.000, 0.000, 0.000, 22:07:01.399
183, -230.21, -382.22, -42.85, -881.65, 0.000, 0.000, 0.000, 22:07:01.400
184, -307.03, -346.65, -54.61, -896.95, 0.000, 0.000, 0.000, 22:07:01.400
185, 592.75, 582.07, 25.23, -819.07, 0.000, 0.000, 0.000, 22:07:01.414
186, 107.36, -18.83, 17.62, -812.70, 0.000, 0.000, 0.000, 22:07:01.414
187, -464.89, -553.02, -39.75, -889.48, 0.000, 0.000, 0.000, 22:07:01.429
188, 377.12, 354.59, 13.68, -847.36, 0.000, 0.000, 0.000, 22:07:01.430
189, 386.89, 318.78, 2.86, -836.90, 0.000, 0.000, 0.000, 22:07:01.430
190, -426.90, -548.04, -36.19, -881.32, 0.000, 0.000, 0.000, 22:07:01.430
191, 58.28, 21.56, -11.17, -861.13, 0.000, 0.000, 0.000, 22:07:01.445
192, 637.15, 581.35, 22.60, -813.64, 0.000, 0.000, 0.000, 22:07:01.445
193, -201.30, -335.85, -16.80, -853.86, 0.000, 0.000, 0.000, 22:07:01.459
194, -271.62, -334.30, -45.73, -892.75, 0.000, 0.000, 0.000, 22:07:01.459
195, 653.93, 596.74, 32.70, -826.83, 0.000, 0.000, 0.000, 22:07:01.460
196, 80.76, -12.38, -6.88, -856.84, 0.000, 0.000, 0.000, 22:07:01.460
197, -452.18, -536.94, -41.26, -880.44, 0.000, 0.000, 0.000, 22:07:01.475
198, 375.35, 366.53, 7.17, -847.15, 0.000, 0.000, 0.000, 22:07:01.475
199, 405.77, 336.33, 23.00, -823.63, 0.000, 0.000, 0.000, 22:07:01.489
200, -413.73, -543.45, -47.88, -888.08, 0.000, 0.000, 0.000, 22:07:01.489
0, 70.82, 22.78, -6.83, -860.49, 0.000, 0.000, 0.000, 22:07:01.490
1, 620.73, 576.10, 45.01, -801.51, 0.000, 0.000, 0.000, 22:07:01.504
2, -209.97, -348.64, -10.98, -841.59, 0.000, 0.000, 0.000, 22:07:01.505
3, -267.23, -324.99, -43.72, -870.51, 0.000, 0.000, 0.000, 22:07:01.505
4, 606.04, 582.06, 19.67, -833.80, 0.000, 0.000, 0.000, 22:07:01.505
5, 65.62, -10.13, 6.29, -843.89, 0.000, 0.000, 0.000, 22:07:01.521
6, -427.79, -526.65, -35.84, -862.44, 0.000, 0.000, 0.000, 22:07:01.521
7, 372.40, 367.93, 13.00, -834.49, 0.000, 0.000, 0.000, 22:07:01.534
8, 415.00, 359.88, 11.75, -820.93, 0.000, 0.000, 0.000, 22:07:01.534
9, -431.67, -544.13, -45.86, -876.87, 0.000, 0.000, 0.000, 22:07:01.535
10, 62.15, 13.77, -14.25, -863.81, 0.000, 0.000, 0.000, 22:07:01.535
11, 623.14, 586.64, 24.73, -826.92, 0.000, 0.000, 0.000, 22:07:01.550
12, -231.35, -334.68, -7.17, -844.90, 0.000, 0.000, 0.000, 22:07:01.550
13, -290.40, -351.76, -23.57, -866.43, 0.000, 0.000, 0.000, 22:07:01.565
14, 573.83, 579.22, 35.01, -810.98, 0.000, 0.000, 0.000, 22:07:01.565
15, 89.93, -18.34, -2.11, -839.67, 0.000, 0.000, 0.000, 22:07:01.565
16, -429.23, -543.66, -39.57, -888.05, 0.000, 0.000, 0.000, 22:07:01.565
17, 393.19, 365.20, 8.30, -854.08, 0.000, 0.000, 0.000, 22:07:01.579
18, 427.70, 352.99, 21.20, -811.35, 0.000, 0.000, 0.000, 22:07:01.579
19, -407.74, -541.51, -35.69, -867.09, 0.000, 0.000, 0.000, 22:07:01.595
20, 61.38, 5.87, -27.41, -863.21, 0.000, 0.000, 0.000, 22:07:01.595
21, 629.02, 587.79, 39.74, -806.74, 0.000, 0.000, 0.000, 22:07:01.595
22, -217.78, -344.12, -23.47, -856.55, 0.000, 0.000, 0.000, 22:07:01.595
23, -258.52, -337.66, -30.27, -887.83, 0.000, 0.000, 0.000, 22:07:01.610
24, 581.62, 592.76, 35.32, -818.98, 0.000, 0.000, 0.000, 22:07:01.610
25, 101.94, -2.64, 9.88, -820.34, 0.000, 0.000, 0.000, 22:07:01.625
26, -424.98, -536.96, -29.23, -884.05, 0.000, 0.000, 0.000, 22:07:01.625
27, 386.71, 364.48, 35.15, -832.88, 0.000, 0.000, 0.000, 22:07:01.625
28, 400.21, 345.68, 32.40, -825.05, 0.000, 0.000, 0.000, 22:07:01.625
29, -426.56, -544.59, -28.36, -866.44, 0.000, 0.000, 0.000, 22:07:01.639
30, 30.41, -3.20, -18.39, -854.22, 0.000, 0.000, 0.000, 22:07:01.640
31, 625.23, 580.70, 38.14, -803.56, 0.000, 0.000, 0.000, 22:07:01.654
32, -182.87, -337.14, -14.81, -846.01, 0.000, 0.000, 0.000, 22:07:01.654
33, -281.45, -353.93, -40.63, -875.96, 0.000, 0.000, 0.000, 22:07:01.655
34, 568.82, 573.94, 20.58, -827.63, 0.000, 0.000, 0.000, 22:07:01.655
35, 107.05, -11.37, 12.64, -833.21, 0.000, 0.000, 0.000, 22:07:01.669
36, -454.66, -550.91, -43.29, -889.03, 0.000, 0.000, 0.000, 22:07:01.670
37, 361.96, 337.89, 12.32, -840.24, 0.000, 0.000, 0.000, 22:07:01.684
38, 423.04, 358.05, 41.59, -800.63, 0.000, 0.000, 0.000, 22:07:01.684
39, -402.26, -536.95, -40.71, -862.24, 0.000, 0.000, 0.000, 22:07:01.692
40, 51.31, 7.54, 3.04, -853.52, 0.000, 0.000, 0.000, 22:07:01.692
41, 605.85, 574.19, 37.67, -814.69, 0.000, 0.000, 0.000, 22:07:01.699
42, -211.88, -337.29, -13.92, -849.84, 0.000, 0.000, 0.000, 22:07:01.699
43, -274.78, -350.03, -24.85, -869.78, 0.000, 0.000, 0.000, 22:07:01.715
44, 598.70, 581.35, 33.18, -812.27, 0.000, 0.000, 0.000, 22:07:01.715
45, 108.11, 1.00, 6.44, -825.94, 0.000, 0.000, 0.000, 22:07:01.715
46, -427.25, -542.35, -50.54, -892.18, 0.000, 0.000, 0.000, 22:07:01.715
47, 379.75, 354.94, 16.06, -836.62, 0.000, 0.000, 0.000, 22:07:01.730
48, 424.22, 356.38, 18.28, -820.55, 0.000, 0.000, 0.000, 22:07:01.730
49, -386.85, -531.02, -18.68, -853.94, 0.000, 0.000, 0.000, 22:07:01.744
50, 26.87, -5.68, -4.30, -860.05, 0.000, 0.000, 0.000, 22:07:01.744
51, 598.85, 573.20, 47.21, -801.63, 0.000, 0.000, 0.000, 22:07:01.745
52, -223.10, -335.05, 2.41, -830.64, 0.000, 0.000, 0.000, 22:07:01.745
53, -267.95, -351.83, -16.25, -865.16, 0.000, 0.000, 0.000, 22:07:01.760
54, 594.68, 582.63, 47.16, -816.41, 0.000, 0.000, 0.000, 22:07:01.760
55, 112.24, 1.41, 9.70, -837.24, 0.000, 0.000, 0.000, 22:07:01.774
56, -440.43, -536.12, -42.33, -879.05, 0.000, 0.000, 0.000, 22:07:01.775
57, 352.66, 355.06, 1.52, -849.18, 0.000, 0.000, 0.000, 22:07:01.775
58, 428.48, 358.74, 13.56, -814.11, 0.000, 0.000, 0.000, 22:07:01.775
59, -421.26, -535.31, -22.63, -855.32, 0.000, 0.000, 0.000, 22:07:01.790
60, 51.97, -7.77, 2.45, -856.16, 0.000, 0.000, 0.000, 22:07:01.790
61, 622.09, 581.79, 38.18, -820.75, 0.000, 0.000, 0.000, 22:07:01.804
62, -193.93, -326.70, -16.30, -850.63, 0.000, 0.000, 0.000, 22:07:01.804
63, -285.40, -362.46, -31.77, -869.57, 0.000, 0.000, 0.000, 22:07:01.805
64, 599.10, 577.76, 35.23, -820.93, 0.000, 0.000, 0.000, 22:07:01.805
65, 104.95, 15.58, 18.29, -831.29, 0.000, 0.000, 0.000, 22:07:01.820
66, -446.50, -544.09, -45.26, -873.66, 0.000, 0.000, 0.000, 22:07:01.820
67, 367.75, 336.12, 20.69, -835.12, 0.000, 0.000, 0.000, 22:07:01.835
68, 419.36, 354.53, 42.23, -806.72, 0.000, 0.000, 0.000, 22:07:01.835
69, -424.20, -538.86, -18.37, -865.96, 0.000, 0.000, 0.000, 22:07:01.836
70, 38.43, -11.09, -1.28, -854.18, 0.000, 0.000, 0.000, 22:07:01.836
71, 625.20, 592.14, 44.31, -807.07, 0.000, 0.000, 0.000, 22:07:01.850
72, -199.61, -318.47, -0.44, -844.43, 0.000, 0.000, 0.000, 22:07:01.850
73, -280.08, -355.38, -25.39, -874.98, 0.000, 0.000, 0.000, 22:07:01.864
74, 585.94, 577.84, 28.91, -828.62, 0.000, 0.000, 0.000, 22:07:01.865
75, 98.69, -5.37, 8.97, -840.25, 0.000, 0.000, 0.000, 22:07:01.865
76, -453.06, -550.68, -41.70, -886.85, 0.000, 0.000, 0.000, 22:07:01.865
77, 380.29, 343.57, 19.74, -846.01, 0.000, 0.000, 0.000, 22:07:01.879
78, 437.92, 365.63, 30.26, -814.70, 0.000, 0.000, 0.000, 22:07:01.879
79, -411.28, -527.76, -35.13, -878.08, 0.000, 0.000, 0.000, 22:07:01.909
80, 59.10, -4.12, 0.40, -847.89, 0.000, 0.000, 0.000, 22:07:01.909
81, 629.83, 588.75, 46.39, -806.29, 0.000, 0.000, 0.000, 22:07:01.910
82, -194.31, -305.14, -8.85, -841.82, 0.000, 0.000, 0.000, 22:07:01.910
83, -290.95, -362.11, -29.11, -874.39, 0.000, 0.000, 0.000, 22:07:01.911
84, 581.65, 572.94, 32.11, -828.52, 0.000, 0.000, 0.000, 22:07:01.911
85, 116.55, 15.29, 4.62, -834.68, 0.000, 0.000, 0.000, 22:07:01.924
86, -439.08, -534.95, -32.29, -885.50, 0.000, 0.000, 0.000, 22:07:01.924
87, 371.81, 362.52, 10.23, -846.81, 0.000, 0.000, 0.000, 22:07:01.925
88, 439.91, 370.15, 27.16, -823.07, 0.000, 0.000, 0.000, 22:07:01.925
89, -419.19, -536.90, -54.82, -887.57, 0.000, 0.000, 0.000, 22:07:01.940
90, 29.49, -14.87, -31.63, -873.37, 0.000, 0.000, 0.000, 22:07:01.940
91, 609.09, 578.77, 22.32, -830.13, 0.000, 0.000, 0.000, 22:07:01.955
92, -199.10, -329.69, -36.67, -863.24, 0.000, 0.000, 0.000, 22:07:01.955
93, -293.40, -376.17, -58.59, -900.22, 0.000, 0.000, 0.000, 22:07:01.955
94, 571.80, 556.96, 15.20, -834.28, 0.000, 0.000, 0.000, 22:07:01.955
95, 104.14, -8.72, -16.49, -854.25, 0.000, 0.000, 0.000, 22:07:01.970
96, -438.98, -565.60, -66.97, -893.12, 0.000, 0.000, 0.000, 22:07:01.970
97, 357.00, 335.08, -3.74, -850.49, 0.000, 0.000, 0.000, 22:07:01.985
98, 444.48, 353.11, 13.66, -834.74, 0.000, 0.000, 0.000, 22:07:01.985
99, -421.38, -536.15, -50.90, -888.82, 0.000, 0.000, 0.000, 22:07:01.985
100, 44.48, -15.26, -28.86, -873.06, 0.000, 0.000, 0.000, 22:07:01.985
101, 597.10, 568.01, 19.26, -827.34, 0.000, 0.000, 0.000, 22:07:02.000
102, -191.03, -321.39, -39.51, -856.11, 0.000, 0.000, 0.000, 22:07:02.000
103, -266.31, -361.03, -43.88, -893.52, 0.000, 0.000, 0.000, 22:07:02.014
104, 582.21, 573.00, 18.62, -838.01, 0.000, 0.000, 0.000, 22:07:02.014
105, 114.78, 10.37, -10.35, -847.35, 0.000, 0.000, 0.000, 22:07:02.015
106, -442.62, -563.95, -65.34, -896.78, 0.000, 0.000, 0.000, 22:07:02.015
107, 359.40, 334.61, -6.87, -852.67, 0.000, 0.000, 0.000, 22:07:02.030
108, 442.62, 379.61, 31.90, -819.64, 0.000, 0.000, 0.000, 22:07:02.030
109, -414.66, -537.83, -47.86, -880.42, 0.000, 0.000, 0.000, 22:07:02.045
110, 41.47, -21.01, -13.66, -864.46, 0.000, 0.000, 0.000, 22:07:02.045
111, 602.22, 575.38, 25.84, -830.86, 0.000, 0.000, 0.000, 22:07:02.045
112, -191.71, -314.03, -27.33, -860.32, 0.000, 0.000, 0.000, 22:07:02.045
113, -295.19, -366.59, -47.31, -898.70, 0.000, 0.000, 0.000, 22:07:02.074
114, 595.87, 576.06, 31.17, -830.06, 0.000, 0.000, 0.000, 22:07:02.075
115, 118.45, 9.98, 0.67, -841.73, 0.000, 0.000, 0.000, 22:07:02.075
116, -446.77, -558.55, -48.46, -887.27, 0.000, 0.000, 0.000, 22:07:02.075
117, 337.91, 330.16, 19.81, -833.13, 0.000, 0.000, 0.000, 22:07:02.076
118, 452.20, 380.86, 27.43, -809.99, 0.000, 0.000, 0.000, 22:07:02.076
119, -421.86, -534.82, -42.15, -865.45, 0.000, 0.000, 0.000, 22:07:02.089
120, 7.32, -33.85, -8.65, -863.74, 0.000, 0.000, 0.000, 22:07:02.089
121, 584.00, 562.33, 20.87, -833.08, 0.000, 0.000, 0.000, 22:07:02.105
122, -199.50, -325.58, -13.36, -858.29, 0.000, 0.000, 0.000, 22:07:02.105
123, -276.72, -369.79, -27.41, -889.41, 0.000, 0.000, 0.000, 22:07:02.105
124, 586.83, 576.52, 35.12, -835.71, 0.000, 0.000, 0.000, 22:07:02.105
125, 142.63, 38.48, -5.02, -834.15, 0.000, 0.000, 0.000, 22:07:02.126
126, -439.11, -552.42, -54.42, -882.05, 0.000, 0.000, 0.000, 22:07:02.126
127, 358.50, 326.21, 12.48, -846.59, 0.000, 0.000, 0.000, 22:07:02.135
128, 459.09, 378.47, 26.28, -819.36, 0.000, 0.000, 0.000, 22:07:02.135
129, -419.67, -531.49, -46.19, -873.79, 0.000, 0.000, 0.000, 22:07:02.136
130, 12.77, -40.68, -30.22, -874.04, 0.000, 0.000, 0.000, 22:07:02.136
131, 614.62, 588.69, 35.27, -824.25, 0.000, 0.000, 0.000, 22:07:02.150
132, -175.87, -310.94, -11.89, -852.67, 0.000, 0.000, 0.000, 22:07:02.150
133, -285.02, -368.17, -41.89, -886.66, 0.000, 0.000, 0.000, 22:07:02.164
134, 589.58, 565.53, 34.38, -832.84, 0.000, 0.000, 0.000, 22:07:02.164
135, 132.25, 35.85, 12.68, -821.54, 0.000, 0.000, 0.000, 22:07:02.165
136, -450.83, -555.44, -56.81, -875.80, 0.000, 0.000, 0.000, 22:07:02.165
137, 333.57, 320.81, 12.69, -841.73, 0.000, 0.000, 0.000, 22:07:02.180
138, 431.12, 375.53, 23.13, -817.07, 0.000, 0.000, 0.000, 22:07:02.180
139, -400.51, -530.70, -36.01, -867.88, 0.000, 0.000, 0.000, 22:07:02.194
140, 24.15, -38.23, -10.57, -867.91, 0.000, 0.000, 0.000, 22:07:02.195
141, 614.07, 594.12, 33.61, -825.97, 0.000, 0.000, 0.000, 22:07:02.195
142, -187.96, -317.73, -14.55, -848.07, 0.000, 0.000, 0.000, 22:07:02.195
143, -314.26, -388.69, -31.25, -882.84, 0.000, 0.000, 0.000, 22:07:02.210
144, 576.20, 563.54, 35.08, -826.46, 0.000, 0.000, 0.000, 22:07:02.210
145, 144.46, 26.65, 12.91, -825.42, 0.000, 0.000, 0.000, 22:07:02.224
146, -434.08, -550.74, -29.74, -868.25, 0.000, 0.000, 0.000, 22:07:02.225
147, 334.28, 314.52, 14.75, -844.47, 0.000, 0.000, 0.000, 22:07:02.225
148, 443.20, 388.86, 31.50, -813.99, 0.000, 0.000, 0.000, 22:07:02.225
149, -403.04, -528.87, -23.89, -868.71, 0.000, 0.000, 0.000, 22:07:02.239
150, 6.27, -54.96, -15.60, -873.69, 0.000, 0.000, 0.000, 22:07:02.239
151, 608.94, 587.84, 29.86, -823.94, 0.000, 0.000, 0.000, 22:07:02.254
152, -184.31, -312.09, -25.61, -861.12, 0.000, 0.000, 0.000, 22:07:02.255
153, -301.24, -384.62, -50.49, -886.59, 0.000, 0.000, 0.000, 22:07:02.255
154, 570.38, 564.36, 27.27, -830.88, 0.000, 0.000, 0.000, 22:07:02.255
155, 126.95, 28.18, 1.45, -840.64, 0.000, 0.000, 0.000, 22:07:02.270
156, -452.66, -560.98, -35.82, -879.50, 0.000, 0.000, 0.000, 22:07:02.270
157, 358.68, 325.66, 12.03, -843.68, 0.000, 0.000, 0.000, 22:07:02.284
158, 427.98, 369.55, 18.14, -823.91, 0.000, 0.000, 0.000, 22:07:02.284
159, -400.49, -525.62, -44.42, -872.50, 0.000, 0.000, 0.000, 22:07:02.285
160, -15.16, -52.18, -34.02, -878.70, 0.000, 0.000, 0.000, 22:07:02.285
161, 609.81, 579.46, 38.02, -810.72, 0.000, 0.000, 0.000, 22:07:02.299
162, -190.21, -314.67, -13.52, -849.09, 0.000, 0.000, 0.000, 22:07:02.299
163, -309.63, -395.95, -32.47, -882.05, 0.000, 0.000, 0.000, 22:07:02.315
164, 545.93, 546.30, 20.98, -830.59, 0.000, 0.000, 0.000, 22:07:02.315
165, 136.19, 31.89, 10.61, -829.52, 0.000, 0.000, 0.000, 22:07:02.315
166, -417.99, -543.56, -22.93, -862.90, 0.000, 0.000, 0.000, 22:07:02.315
167, 352.63, 324.12, 24.79, -828.26, 0.000, 0.000, 0.000, 22:07:02.329
168, 470.68, 399.76, 39.09, -803.58, 0.000, 0.000, 0.000, 22:07:02.329
169, -390.64, -521.38, -36.14, -860.08, 0.000, 0.000, 0.000, 22:07:02.344
170, 20.26, -44.15, -11.02, -851.20, 0.000, 0.000, 0.000, 22:07:02.344
171, 620.48, 597.48, 32.37, -810.06, 0.000, 0.000, 0.000, 22:07:02.345
172, -165.99, -299.89, -4.23, -834.90, 0.000, 0.000, 0.000, 22:07:02.345
173, -293.86, -386.56, -34.71, -868.78, 0.000, 0.000, 0.000, 22:07:02.360
174, 581.59, 559.11, 28.71, -818.95, 0.000, 0.000, 0.000, 22:07:02.360
175, 150.42, 40.16, 14.50, -822.57, 0.000, 0.000, 0.000, 22:07:02.374
176, -445.51, -555.63, -41.97, -869.88, 0.000, 0.000, 0.000, 22:07:02.374
177, 344.48, 309.54, 21.03, -832.01, 0.000, 0.000, 0.000, 22:07:02.375
178, 441.47, 394.33, 32.33, -808.95, 0.000, 0.000, 0.000, 22:07:02.375
179, -420.61, -530.27, -40.97, -865.14, 0.000, 0.000, 0.000, 22:07:02.390
180, -9.28, -54.25, -23.77, -861.07, 0.000, 0.000, 0.000, 22:07:02.390
181, 606.62, 596.69, 28.32, -806.15, 0.000, 0.000, 0.000, 22:07:02.404
182, -173.92, -301.91, -14.69, -847.27, 0.000, 0.000, 0.000, 22:07:02.405
183, -288.92, -373.19, -38.82, -872.80, 0.000, 0.000, 0.000, 22:07:02.405
184, 569.73, 562.95, 34.26, -823.10, 0.000, 0.000, 0.000, 22:07:02.405
185, 167.24, 70.18, 15.03, -820.14, 0.000, 0.000, 0.000, 22:07:02.420
186, -445.08, -556.14, -43.39, -879.93, 0.000, 0.000, 0.000, 22:07:02.420
187, 345.60, 307.41, 1.92, -835.82, 0.000, 0.000, 0.000, 22:07:02.435
188, 456.45, 390.23, 15.70, -809.85, 0.000, 0.000, 0.000, 22:07:02.435
189, -403.11, -526.26, -27.17, -858.76, 0.000, 0.000, 0.000, 22:07:02.435
190, 4.01, -55.52, -30.84, -862.46, 0.000, 0.000, 0.000, 22:07:02.435
191, 626.58, 599.95, 39.38, -805.31, 0.000, 0.000, 0.000, 22:07:02.450
192, -159.53, -288.49, -15.18, -845.35, 0.000, 0.000, 0.000, 22:07:02.450
193, -299.67, -392.25, -34.71, -875.33, 0.000, 0.000, 0.000, 22:07:02.465
194, 562.41, 552.88, 20.85, -824.66, 0.000, 0.000, 0.000, 22:07:02.465
195, 143.62, 39.68, -5.41, -832.65, 0.000, 0.000, 0.000, 22:07:02.465
196, -440.32, -571.17, -41.41, -875.30, 0.000, 0.000, 0.000, 22:07:02.465
197, 328.67, 304.26, 8.43, -836.62, 0.000, 0.000, 0.000, 22:07:02.480
198, 457.41, 393.14, 36.30, -807.41, 0.000, 0.000, 0.000, 22:07:02.480
199, -384.21, -515.03, -32.16, -854.88, 0.000, 0.000, 0.000, 22:07:02.494
200, -8.35, -60.45, -5.06, -854.98, 0.000, 0.000, 0.000, 22:07:02.494
0, 613.84, 600.85, 43.94, -817.65, 0.000, 0.000, 0.000, 22:07:02.495
1, -154.37, -277.59, -15.04, -857.84, 0.000, 0.000, 0.000, 22:07:02.509
2, -304.72, -398.58, -51.06, -886.36, 0.000, 0.000, 0.000, 22:07:02.509
3, 568.87, 556.47, 30.57, -823.68, 0.000, 0.000, 0.000, 22:07:02.517
4, 160.81, 59.19, 19.90, -823.08, 0.000, 0.000, 0.000, 22:07:02.517
5, -445.91, -549.29, -44.21, -878.56, 0.000, 0.000, 0.000, 22:07:02.525
6, 304.44, 277.38, 2.96, -851.87, 0.000, 0.000, 0.000, 22:07:02.525
7, 449.93, 382.79, 14.21, -822.35, 0.000, 0.000, 0.000, 22:07:02.539
8, -400.47, -527.41, -39.87, -876.23, 0.000, 0.000, 0.000, 22:07:02.539
9, -16.23, -76.53, -24.37, -863.29, 0.000, 0.000, 0.000, 22:07:02.540
10, 628.96, 594.36, 27.46, -825.42, 0.000, 0.000, 0.000, 22:07:02.540
11, -181.93, -299.73, -22.35, -858.07, 0.000, 0.000, 0.000, 22:07:02.555
12, -314.71, -407.91, -60.35, -897.93, 0.000, 0.000, 0.000, 22:07:02.555
13, 566.01, 553.41, 20.49, -845.74, 0.000, 0.000, 0.000, 22:07:02.571
14, 149.59, 54.20, -2.19, -856.94, 0.000, 0.000, 0.000, 22:07:02.571
15, -450.93, -560.40, -53.90, -890.43, 0.000, 0.000, 0.000, 22:07:02.571
16, 321.46, 295.36, 2.34, -852.79, 0.000, 0.000, 0.000, 22:07:02.571
17, 495.82, 416.46, 22.90, -817.21, 0.000, 0.000, 0.000, 22:07:02.585
18, -404.96, -512.15, -37.10, -870.66, 0.000, 0.000, 0.000, 22:07:02.585
19, -33.06, -82.56, -30.19, -878.65, 0.000, 0.000, 0.000, 22:07:02.601
20, 610.02, 589.39, 28.13, -820.34, 0.000, 0.000, 0.000, 22:07:02.601
21, -145.68, -277.55, -9.24, -850.74, 0.000, 0.000, 0.000, 22:07:02.602
22, -300.14, -391.73, -21.69, -875.45, 0.000, 0.000, 0.000, 22:07:02.602
23, 544.81, 545.73, 23.38, -833.51, 0.000, 0.000, 0.000, 22:07:02.614
24, 157.67, 64.07, 9.27, -835.11, 0.000, 0.000, 0.000, 22:07:02.615
25, -462.12, -563.34, -56.72, -897.86, 0.000, 0.000, 0.000, 22:07:02.629
26, 325.15, 293.80, 8.44, -852.61, 0.000, 0.000, 0.000, 22:07:02.629
27, 455.56, 401.39, 32.13, -818.44, 0.000, 0.000, 0.000, 22:07:02.630
28, -379.65, -511.98, -42.16, -877.11, 0.000, 0.000, 0.000, 22:07:02.630
29, -17.41, -75.59, -18.24, -874.46, 0.000, 0.000, 0.000, 22:07:02.644
30, 628.15, 598.52, 36.03, -816.82, 0.000, 0.000, 0.000, 22:07:02.644
31, -148.41, -275.35, -17.30, -854.51, 0.000, 0.000, 0.000, 22:07:02.659
32, -292.85, -391.32, -30.62, -865.99, 0.000, 0.000, 0.000, 22:07:02.660
33, 551.66, 545.35, 18.16, -839.38, 0.000, 0.000, 0.000, 22:07:02.660
34, 165.21, 69.87, 11.37, -834.43, 0.000, 0.000, 0.000, 22:07:02.660
35, -457.80, -564.72, -43.65, -885.05, 0.000, 0.000, 0.000, 22:07:02.675
36, 317.66, 294.41, 8.40, -849.27, 0.000, 0.000, 0.000, 22:07:02.675
37, 478.53, 424.15, 28.11, -813.03, 0.000, 0.000, 0.000, 22:07:02.690
38, -394.43, -524.18, -45.25, -871.27, 0.000, 0.000, 0.000, 22:07:02.690
39, -30.43, -90.79, -23.35, -871.87, 0.000, 0.000, 0.000, 22:07:02.690
40, 615.51, 595.64, 22.05, -824.90, 0.000, 0.000, 0.000, 22:07:02.690
41, -142.69, -272.15, -23.73, -853.27, 0.000, 0.000, 0.000, 22:07:02.705
42, -338.03, -414.97, -49.44, -904.95, 0.000, 0.000, 0.000, 22:07:02.705
43, 571.13, 546.72, 33.58, -826.46, 0.000, 0.000, 0.000, 22:07:02.719
44, 174.86, 75.31, 1.53, -834.16, 0.000, 0.000, 0.000, 22:07:02.720
45, -448.58, -567.77, -38.60, -879.01, 0.000, 0.000, 0.000, 22:07:02.721
46, 295.88, 267.84, 4.39, -860.91, 0.000, 0.000, 0.000, 22:07:02.721
